%OpenBCI Raw EEG Data
%Number of channels = 8
%Sample Rate = 250 Hz
%Board = OpenBCI_GUI$BoardCytonSerial
Sample Index, EXG Channel 0, EXG Channel 1, EXG Channel 2, EXG Channel 3, EXG Channel 4, EXG Channel 5, EXG Channel 6, EXG Channel 7, Accel Channel 0, Accel Channel 1, Accel Channel 2, Other, Other, Other, Other, Other, Other, Other, Analog Channel 0, Analog Channel 1, Analog Channel 2, Timestamp, Timestamp (Formatted)
0.0, 0.0, 0.0, 0.0, 0.0, 0.0, 0.0, 0.0, 0.0, 0.0, 0.0, 0.0, 192.0, 0.0, 0.0, 0.0, 0.0, 0.0, 0.0, 0.0, 0.0, 0.0, 1.612537532448808E9, 2021-02-05 10:05:32.448
1.0, 0.0, 0.0, 41044.37109375, 87519.7734375, -31955.884765625, -9576.11328125, 0.0, 0.0, -0.06800000369548798, 0.9920000433921814, 0.08000000566244125, 192.0, 253.0, 224.0, 31.0, 0.0, 2.0, 128.0, 0.0, 0.0, 0.0, 1.612537532507678E9, 2021-02-05 10:05:32.507
2.0, 0.0, 0.0, 41385.70703125, 87880.59375, -32099.78515625, -10532.611328125, 0.0, 0.0, -0.06800000369548798, 0.9920000433921814, 0.08000000566244125, 192.0, 0.0, 0.0, 0.0, 0.0, 0.0, 0.0, 0.0, 0.0, 0.0, 1.612537532507681E9, 2021-02-05 10:05:32.507
3.0, 0.0, 0.0, 41374.59765625, 87867.03125, -31882.7734375, -10851.8388671875, 0.0, 0.0, -0.06800000369548798, 0.9920000433921814, 0.08000000566244125, 192.0, 0.0, 0.0, 0.0, 0.0, 0.0, 0.0, 0.0, 0.0, 0.0, 1.612537532507682E9, 2021-02-05 10:05:32.507
4.0, 0.0, 0.0, 41072.69140625, 87533.5625, -31698.28125, -10047.220703125, 0.0, 0.0, -0.06800000369548798, 0.9920000433921814, 0.08000000566244125, 192.0, 0.0, 0.0, 0.0, 0.0, 0.0, 0.0, 0.0, 0.0, 0.0, 1.612537532507683E9, 2021-02-05 10:05:32.507
5.0, 0.0, 0.0, 40999.0, 87461.8828125, -31903.806640625, -9510.197265625, 0.0, 0.0, -0.06800000369548798, 0.9920000433921814, 0.08000000566244125, 192.0, 0.0, 0.0, 0.0, 0.0, 0.0, 0.0, 0.0, 0.0, 0.0, 1.612537532507684E9, 2021-02-05 10:05:32.507
6.0, 0.0, 0.0, 41331.94921875, 87823.890625, -32108.369140625, -10354.8701171875, 0.0, 0.0, -0.06800000369548798, 0.9920000433921814, 0.08000000566244125, 192.0, 0.0, 0.0, 0.0, 0.0, 0.0, 0.0, 0.0, 0.0, 0.0, 1.612537532507685E9, 2021-02-05 10:05:32.507
7.0, 0.0, 0.0, 41431.7734375, 87923.5546875, -31918.603515625, -10897.2353515625, 0.0, 0.0, -0.06800000369548798, 0.9920000433921814, 0.08000000566244125, 192.0, 0.0, 0.0, 0.0, 0.0, 0.0, 0.0, 0.0, 0.0, 0.0, 1.612537532507687E9, 2021-02-05 10:05:32.507
8.0, 0.0, 0.0, 41113.0390625, 87583.4296875, -31703.7578125, -10217.8310546875, 0.0, 0.0, -0.06400000303983688, 0.9860000610351562, 0.07600000500679016, 192.0, 254.0, 0.0, 30.0, 208.0, 2.0, 96.0, 0.0, 0.0, 0.0, 1.612537532507688E9, 2021-02-05 10:05:32.507
9.0, 0.0, 0.0, 40971.39453125, 87437.09375, -31843.478515625, -9489.6337890625, 0.0, 0.0, -0.06400000303983688, 0.9860000610351562, 0.07600000500679016, 192.0, 0.0, 0.0, 0.0, 0.0, 0.0, 0.0, 0.0, 0.0, 0.0, 1.612537532507689E9, 2021-02-05 10:05:32.507
10.0, 0.0, 0.0, 41274.68359375, 87756.859375, -32102.267578125, -10162.6669921875, 0.0, 0.0, -0.06400000303983688, 0.9860000610351562, 0.07600000500679016, 192.0, 0.0, 0.0, 0.0, 0.0, 0.0, 0.0, 0.0, 0.0, 0.0, 1.61253753250769E9, 2021-02-05 10:05:32.507
11.0, 0.0, 0.0, 41459.9140625, 87948.546875, -31971.62109375, -10893.3232421875, 0.0, 0.0, -0.06400000303983688, 0.9860000610351562, 0.07600000500679016, 192.0, 0.0, 0.0, 0.0, 0.0, 0.0, 0.0, 0.0, 0.0, 0.0, 1.612537532507691E9, 2021-02-05 10:05:32.507
12.0, 0.0, 0.0, 41187.04296875, 87661.3671875, -31716.923828125, -10394.5, 0.0, 0.0, -0.06400000303983688, 0.9860000610351562, 0.07600000500679016, 192.0, 0.0, 0.0, 0.0, 0.0, 0.0, 0.0, 0.0, 0.0, 0.0, 1.612537532507692E9, 2021-02-05 10:05:32.507
13.0, 0.0, 0.0, 40960.57421875, 87422.5625, -31794.841796875, -9536.974609375, 0.0, 0.0, -0.06400000303983688, 0.9860000610351562, 0.07600000500679016, 192.0, 0.0, 0.0, 0.0, 0.0, 0.0, 0.0, 0.0, 0.0, 0.0, 1.612537532507693E9, 2021-02-05 10:05:32.507
14.0, 0.0, 0.0, 41211.2734375, 87688.125, -32090.30859375, -9982.9365234375, 0.0, 0.0, -0.06400000303983688, 0.9860000610351562, 0.07600000500679016, 192.0, 0.0, 0.0, 0.0, 0.0, 0.0, 0.0, 0.0, 0.0, 0.0, 1.612537532507694E9, 2021-02-05 10:05:32.507
15.0, 0.0, 0.0, 41460.2265625, 87950.9375, -32027.947265625, -10854.431640625, 0.0, 0.0, -0.06400000303983688, 0.9860000610351562, 0.07600000500679016, 192.0, 0.0, 0.0, 0.0, 0.0, 0.0, 0.0, 0.0, 0.0, 0.0, 1.612537532507695E9, 2021-02-05 10:05:32.507
16.0, 0.0, 0.0, 41243.90625, 87715.640625, -31760.822265625, -10552.2578125, 0.0, 0.0, -0.06400000303983688, 0.9860000610351562, 0.07600000500679016, 192.0, 0.0, 0.0, 0.0, 0.0, 0.0, 0.0, 0.0, 0.0, 0.0, 1.612537532567998E9, 2021-02-05 10:05:32.567
17.0, 0.0, 0.0, 40977.0703125, 87431.6640625, -31759.81640625, -9621.3974609375, 0.0, 0.0, -0.06400000303983688, 0.9860000610351562, 0.07600000500679016, 192.0, 0.0, 0.0, 0.0, 0.0, 0.0, 0.0, 0.0, 0.0, 0.0, 1.612537532568002E9, 2021-02-05 10:05:32.568
18.0, 0.0, 0.0, 41169.765625, 87639.109375, -32036.10546875, -9813.3095703125, 0.0, 0.0, -0.06000000238418579, 1.0, 0.08000000566244125, 192.0, 254.0, 32.0, 31.0, 64.0, 2.0, 128.0, 0.0, 0.0, 0.0, 1.612537532568003E9, 2021-02-05 10:05:32.568
19.0, 0.0, 0.0, 41442.66015625, 87933.6796875, -32057.921875, -10763.5712890625, 0.0, 0.0, -0.06000000238418579, 1.0, 0.08000000566244125, 192.0, 0.0, 0.0, 0.0, 0.0, 0.0, 0.0, 0.0, 0.0, 0.0, 1.612537532568004E9, 2021-02-05 10:05:32.568
20.0, 0.0, 0.0, 41297.19140625, 87780.75, -31791.421875, -10678.0087890625, 0.0, 0.0, -0.06000000238418579, 1.0, 0.08000000566244125, 192.0, 0.0, 0.0, 0.0, 0.0, 0.0, 0.0, 0.0, 0.0, 0.0, 1.612537532568005E9, 2021-02-05 10:05:32.568
21.0, 0.0, 0.0, 40981.25, 87442.078125, -31723.494140625, -9738.7890625, 0.0, 0.0, -0.06000000238418579, 1.0, 0.08000000566244125, 192.0, 0.0, 0.0, 0.0, 0.0, 0.0, 0.0, 0.0, 0.0, 0.0, 1.612537532568006E9, 2021-02-05 10:05:32.568
22.0, 0.0, 0.0, 41090.08203125, 87559.3828125, -32001.9296875, -9650.1416015625, 0.0, 0.0, -0.06000000238418579, 1.0, 0.08000000566244125, 192.0, 0.0, 0.0, 0.0, 0.0, 0.0, 0.0, 0.0, 0.0, 0.0, 1.612537532568007E9, 2021-02-05 10:05:32.568
23.0, 0.0, 0.0, 41423.97265625, 87922.7109375, -32088.095703125, -10634.19921875, 0.0, 0.0, -0.06000000238418579, 1.0, 0.08000000566244125, 192.0, 0.0, 0.0, 0.0, 0.0, 0.0, 0.0, 0.0, 0.0, 0.0, 1.612537532568008E9, 2021-02-05 10:05:32.568
24.0, 0.0, 0.0, 41352.24609375, 87844.8359375, -31835.56640625, -10780.8271484375, 0.0, 0.0, -0.06000000238418579, 1.0, 0.08000000566244125, 192.0, 0.0, 0.0, 0.0, 0.0, 0.0, 0.0, 0.0, 0.0, 0.0, 1.612537532568014E9, 2021-02-05 10:05:32.568
25.0, 0.0, 0.0, 41028.66015625, 87494.109375, -31705.791015625, -9897.44140625, 0.0, 0.0, -0.06000000238418579, 1.0, 0.08000000566244125, 192.0, 0.0, 0.0, 0.0, 0.0, 0.0, 0.0, 0.0, 0.0, 0.0, 1.612537532568015E9, 2021-02-05 10:05:32.568
26.0, 0.0, 0.0, 41050.296875, 87522.0078125, -31935.166015625, -9551.4140625, 0.0, 0.0, -0.06000000238418579, 1.0, 0.08000000566244125, 192.0, 0.0, 0.0, 0.0, 0.0, 0.0, 0.0, 0.0, 0.0, 0.0, 1.612537532568016E9, 2021-02-05 10:05:32.568
27.0, 0.0, 0.0, 41393.84375, 87887.2578125, -32086.419921875, -10491.2158203125, 0.0, 0.0, -0.06000000238418579, 1.0, 0.08000000566244125, 192.0, 0.0, 0.0, 0.0, 0.0, 0.0, 0.0, 0.0, 0.0, 0.0, 1.612537532568017E9, 2021-02-05 10:05:32.568
28.0, 0.0, 0.0, 41398.91796875, 87889.0234375, -31878.548828125, -10857.8955078125, 0.0, 0.0, -0.06800000369548798, 1.0, 0.0820000022649765, 192.0, 253.0, 224.0, 31.0, 64.0, 2.0, 144.0, 0.0, 0.0, 0.0, 1.612537532568018E9, 2021-02-05 10:05:32.568
29.0, 0.0, 0.0, 41066.27734375, 87532.2890625, -31701.74609375, -10073.39453125, 0.0, 0.0, -0.06800000369548798, 1.0, 0.0820000022649765, 192.0, 0.0, 0.0, 0.0, 0.0, 0.0, 0.0, 0.0, 0.0, 0.0, 1.612537532568019E9, 2021-02-05 10:05:32.568
30.0, 0.0, 0.0, 40982.68359375, 87449.2734375, -31895.333984375, -9501.189453125, 0.0, 0.0, -0.06800000369548798, 1.0, 0.0820000022649765, 192.0, 0.0, 0.0, 0.0, 0.0, 0.0, 0.0, 0.0, 0.0, 0.0, 1.61253753256802E9, 2021-02-05 10:05:32.568
31.0, 0.0, 0.0, 41310.9609375, 87808.1953125, -32115.029296875, -10315.4638671875, 0.0, 0.0, -0.06800000369548798, 1.0, 0.0820000022649765, 192.0, 0.0, 0.0, 0.0, 0.0, 0.0, 0.0, 0.0, 0.0, 0.0, 1.612537532627478E9, 2021-02-05 10:05:32.627
32.0, 0.0, 0.0, 41426.1171875, 87918.9765625, -31944.822265625, -10894.3740234375, 0.0, 0.0, -0.06800000369548798, 1.0, 0.0820000022649765, 192.0, 0.0, 0.0, 0.0, 0.0, 0.0, 0.0, 0.0, 0.0, 0.0, 1.612537532627481E9, 2021-02-05 10:05:32.627
33.0, 0.0, 0.0, 41145.6484375, 87611.015625, -31705.03125, -10263.1162109375, 0.0, 0.0, -0.06800000369548798, 1.0, 0.0820000022649765, 192.0, 0.0, 0.0, 0.0, 0.0, 0.0, 0.0, 0.0, 0.0, 0.0, 1.612537532627482E9, 2021-02-05 10:05:32.627
34.0, 0.0, 0.0, 40966.41015625, 87425.109375, -31840.4609375, -9498.3291015625, 0.0, 0.0, -0.06800000369548798, 1.0, 0.0820000022649765, 192.0, 0.0, 0.0, 0.0, 0.0, 0.0, 0.0, 0.0, 0.0, 0.0, 1.612537532627483E9, 2021-02-05 10:05:32.627
35.0, 0.0, 0.0, 41254.45703125, 87733.1875, -32110.626953125, -10128.0, 0.0, 0.0, -0.06800000369548798, 1.0, 0.0820000022649765, 192.0, 0.0, 0.0, 0.0, 0.0, 0.0, 0.0, 0.0, 0.0, 0.0, 1.612537532627485E9, 2021-02-05 10:05:32.627
36.0, 0.0, 0.0, 41446.4140625, 87941.1015625, -31992.072265625, -10885.4111328125, 0.0, 0.0, -0.06800000369548798, 1.0, 0.0820000022649765, 192.0, 0.0, 0.0, 0.0, 0.0, 0.0, 0.0, 0.0, 0.0, 0.0, 1.612537532627486E9, 2021-02-05 10:05:32.627
37.0, 0.0, 0.0, 41182.7734375, 87661.7734375, -31728.724609375, -10423.958984375, 0.0, 0.0, -0.06800000369548798, 1.0, 0.0820000022649765, 192.0, 0.0, 0.0, 0.0, 0.0, 0.0, 0.0, 0.0, 0.0, 0.0, 1.612537532627487E9, 2021-02-05 10:05:32.627
38.0, 0.0, 0.0, 40945.17578125, 87406.7421875, -31799.021484375, -9540.283203125, 0.0, 0.0, -0.06800000369548798, 1.0, 0.0820000022649765, 192.0, 0.0, 0.0, 0.0, 0.0, 0.0, 0.0, 0.0, 0.0, 0.0, 1.612537532627488E9, 2021-02-05 10:05:32.627
39.0, 0.0, 0.0, 41211.40625, 87694.7421875, -32070.70703125, -9943.2177734375, 0.0, 0.0, -0.07000000029802322, 0.9880000352859497, 0.07800000160932541, 192.0, 253.0, 208.0, 30.0, 224.0, 2.0, 112.0, 0.0, 0.0, 0.0, 1.612537532627489E9, 2021-02-05 10:05:32.627
40.0, 0.0, 0.0, 41450.86328125, 87942.9609375, -32032.283203125, -10820.5234375, 0.0, 0.0, -0.07000000029802322, 0.9880000352859497, 0.07800000160932541, 192.0, 0.0, 0.0, 0.0, 0.0, 0.0, 0.0, 0.0, 0.0, 0.0, 1.61253753262749E9, 2021-02-05 10:05:32.627
41.0, 0.0, 0.0, 41253.3828125, 87723.578125, -31767.37109375, -10556.6611328125, 0.0, 0.0, -0.07000000029802322, 0.9880000352859497, 0.07800000160932541, 192.0, 0.0, 0.0, 0.0, 0.0, 0.0, 0.0, 0.0, 0.0, 0.0, 1.612537532627491E9, 2021-02-05 10:05:32.627
42.0, 0.0, 0.0, 40970.76953125, 87433.2265625, -31755.76953125, -9626.3369140625, 0.0, 0.0, -0.07000000029802322, 0.9880000352859497, 0.07800000160932541, 192.0, 0.0, 0.0, 0.0, 0.0, 0.0, 0.0, 0.0, 0.0, 0.0, 1.612537532627492E9, 2021-02-05 10:05:32.627
43.0, 0.0, 0.0, 41141.7578125, 87623.84375, -32038.876953125, -9758.97265625, 0.0, 0.0, -0.07000000029802322, 0.9880000352859497, 0.07800000160932541, 192.0, 0.0, 0.0, 0.0, 0.0, 0.0, 0.0, 0.0, 0.0, 0.0, 1.612537532627493E9, 2021-02-05 10:05:32.627
44.0, 0.0, 0.0, 41430.8125, 87931.0703125, -32074.21484375, -10720.4775390625, 0.0, 0.0, -0.07000000029802322, 0.9880000352859497, 0.07800000160932541, 192.0, 0.0, 0.0, 0.0, 0.0, 0.0, 0.0, 0.0, 0.0, 0.0, 1.612537532627494E9, 2021-02-05 10:05:32.627
45.0, 0.0, 0.0, 41318.0703125, 87803.484375, -31799.802734375, -10689.85546875, 0.0, 0.0, -0.07000000029802322, 0.9880000352859497, 0.07800000160932541, 192.0, 0.0, 0.0, 0.0, 0.0, 0.0, 0.0, 0.0, 0.0, 0.0, 1.612537532627496E9, 2021-02-05 10:05:32.627
46.0, 0.0, 0.0, 40989.09765625, 87455.171875, -31721.86328125, -9758.525390625, 0.0, 0.0, -0.07000000029802322, 0.9880000352859497, 0.07800000160932541, 192.0, 0.0, 0.0, 0.0, 0.0, 0.0, 0.0, 0.0, 0.0, 0.0, 1.612537532687226E9, 2021-02-05 10:05:32.687
47.0, 0.0, 0.0, 41090.05859375, 87558.1953125, -31987.513671875, -9626.11328125, 0.0, 0.0, -0.07000000029802322, 0.9880000352859497, 0.07800000160932541, 192.0, 0.0, 0.0, 0.0, 0.0, 0.0, 0.0, 0.0, 0.0, 0.0, 1.612537532687235E9, 2021-02-05 10:05:32.687
48.0, 0.0, 0.0, 41427.48046875, 87918.9765625, -32087.224609375, -10603.845703125, 0.0, 0.0, -0.07000000029802322, 0.9880000352859497, 0.07800000160932541, 192.0, 0.0, 0.0, 0.0, 0.0, 0.0, 0.0, 0.0, 0.0, 0.0, 1.612537532687236E9, 2021-02-05 10:05:32.687
49.0, 0.0, 0.0, 41380.5, 87861.75, -31840.595703125, -10792.5166015625, 0.0, 0.0, -0.06599999964237213, 0.9920000433921814, 0.07800000160932541, 192.0, 253.0, 240.0, 31.0, 0.0, 2.0, 112.0, 0.0, 0.0, 0.0, 1.612537532687237E9, 2021-02-05 10:05:32.687
50.0, 0.0, 0.0, 41043.45703125, 87498.5625, -31702.640625, -9921.291015625, 0.0, 0.0, -0.06599999964237213, 0.9920000433921814, 0.07800000160932541, 192.0, 0.0, 0.0, 0.0, 0.0, 0.0, 0.0, 0.0, 0.0, 0.0, 1.612537532687238E9, 2021-02-05 10:05:32.687
51.0, 0.0, 0.0, 41040.6640625, 87504.6875, -31933.154296875, -9532.68359375, 0.0, 0.0, -0.06599999964237213, 0.9920000433921814, 0.07800000160932541, 192.0, 0.0, 0.0, 0.0, 0.0, 0.0, 0.0, 0.0, 0.0, 0.0, 1.61253753268724E9, 2021-02-05 10:05:32.687
52.0, 0.0, 0.0, 41376.1171875, 87865.484375, -32109.642578125, -10448.4794921875, 0.0, 0.0, -0.06599999964237213, 0.9920000433921814, 0.07800000160932541, 192.0, 0.0, 0.0, 0.0, 0.0, 0.0, 0.0, 0.0, 0.0, 0.0, 1.612537532687241E9, 2021-02-05 10:05:32.687
53.0, 0.0, 0.0, 41410.0703125, 87895.015625, -31901.861328125, -10856.3310546875, 0.0, 0.0, -0.06599999964237213, 0.9920000433921814, 0.07800000160932541, 192.0, 0.0, 0.0, 0.0, 0.0, 0.0, 0.0, 0.0, 0.0, 0.0, 1.612537532687242E9, 2021-02-05 10:05:32.687
54.0, 0.0, 0.0, 41081.96875, 87539.171875, -31711.916015625, -10094.1591796875, 0.0, 0.0, -0.06599999964237213, 0.9920000433921814, 0.07800000160932541, 192.0, 0.0, 0.0, 0.0, 0.0, 0.0, 0.0, 0.0, 0.0, 0.0, 1.612537532687243E9, 2021-02-05 10:05:32.687
55.0, 0.0, 0.0, 40994.640625, 87449.5234375, -31881.208984375, -9482.50390625, 0.0, 0.0, -0.06599999964237213, 0.9920000433921814, 0.07800000160932541, 192.0, 0.0, 0.0, 0.0, 0.0, 0.0, 0.0, 0.0, 0.0, 0.0, 1.612537532687244E9, 2021-02-05 10:05:32.687
56.0, 0.0, 0.0, 41320.57421875, 87807.5078125, -32106.06640625, -10265.462890625, 0.0, 0.0, -0.06599999964237213, 0.9920000433921814, 0.07800000160932541, 192.0, 0.0, 0.0, 0.0, 0.0, 0.0, 0.0, 0.0, 0.0, 0.0, 1.612537532687245E9, 2021-02-05 10:05:32.687
57.0, 0.0, 0.0, 41446.01171875, 87935.71875, -31942.810546875, -10880.0244140625, 0.0, 0.0, -0.06599999964237213, 0.9920000433921814, 0.07800000160932541, 192.0, 0.0, 0.0, 0.0, 0.0, 0.0, 0.0, 0.0, 0.0, 0.0, 1.612537532687246E9, 2021-02-05 10:05:32.687
58.0, 0.0, 0.0, 41147.7265625, 87614.453125, -31713.951171875, -10273.263671875, 0.0, 0.0, -0.06599999964237213, 0.9920000433921814, 0.07800000160932541, 192.0, 0.0, 0.0, 0.0, 0.0, 0.0, 0.0, 0.0, 0.0, 0.0, 1.612537532687247E9, 2021-02-05 10:05:32.687
59.0, 0.0, 0.0, 40975.171875, 87430.859375, -31830.939453125, -9491.712890625, 0.0, 0.0, -0.06599999964237213, 0.9960000514984131, 0.07800000160932541, 192.0, 253.0, 240.0, 31.0, 32.0, 2.0, 112.0, 0.0, 0.0, 0.0, 1.612537532687248E9, 2021-02-05 10:05:32.687
60.0, 0.0, 0.0, 41269.05078125, 87741.5, -32096.09765625, -10085.5537109375, 0.0, 0.0, -0.06599999964237213, 0.9960000514984131, 0.07800000160932541, 192.0, 0.0, 0.0, 0.0, 0.0, 0.0, 0.0, 0.0, 0.0, 0.0, 1.612537532687249E9, 2021-02-05 10:05:32.687
61.0, 0.0, 0.0, 41458.4375, 87949.0859375, -32000.58984375, -10872.5361328125, 0.0, 0.0, -0.06599999964237213, 0.9960000514984131, 0.07800000160932541, 192.0, 0.0, 0.0, 0.0, 0.0, 0.0, 0.0, 0.0, 0.0, 0.0, 1.612537532748176E9, 2021-02-05 10:05:32.748
62.0, 0.0, 0.0, 41215.56640625, 87688.4375, -31737.77734375, -10456.6376953125, 0.0, 0.0, -0.06599999964237213, 0.9960000514984131, 0.07800000160932541, 192.0, 0.0, 0.0, 0.0, 0.0, 0.0, 0.0, 0.0, 0.0, 0.0, 1.612537532748181E9, 2021-02-05 10:05:32.748
63.0, 0.0, 0.0, 40962.453125, 87419.5703125, -31784.291015625, -9557.60546875, 0.0, 0.0, -0.06599999964237213, 0.9960000514984131, 0.07800000160932541, 192.0, 0.0, 0.0, 0.0, 0.0, 0.0, 0.0, 0.0, 0.0, 0.0, 1.612537532748182E9, 2021-02-05 10:05:32.748
64.0, 0.0, 0.0, 41188.9453125, 87664.609375, -32075.490234375, -9903.4765625, 0.0, 0.0, -0.06599999964237213, 0.9960000514984131, 0.07800000160932541, 192.0, 0.0, 0.0, 0.0, 0.0, 0.0, 0.0, 0.0, 0.0, 0.0, 1.612537532748183E9, 2021-02-05 10:05:32.748
65.0, 0.0, 0.0, 41449.83203125, 87941.28125, -32044.845703125, -10809.5712890625, 0.0, 0.0, -0.06599999964237213, 0.9960000514984131, 0.07800000160932541, 192.0, 0.0, 0.0, 0.0, 0.0, 0.0, 0.0, 0.0, 0.0, 0.0, 1.612537532748184E9, 2021-02-05 10:05:32.748
66.0, 0.0, 0.0, 41274.03515625, 87748.453125, -31761.537109375, -10596.380859375, 0.0, 0.0, -0.06599999964237213, 0.9960000514984131, 0.07800000160932541, 192.0, 0.0, 0.0, 0.0, 0.0, 0.0, 0.0, 0.0, 0.0, 0.0, 1.612537532748185E9, 2021-02-05 10:05:32.748
67.0, 0.0, 0.0, 40994.1484375, 87448.71875, -31733.41796875, -9660.423828125, 0.0, 0.0, -0.06599999964237213, 0.9960000514984131, 0.07800000160932541, 192.0, 0.0, 0.0, 0.0, 0.0, 0.0, 0.0, 0.0, 0.0, 0.0, 1.612537532748186E9, 2021-02-05 10:05:32.748
68.0, 0.0, 0.0, 41153.671875, 87619.9765625, -32007.33984375, -9741.8955078125, 0.0, 0.0, -0.06599999964237213, 0.9960000514984131, 0.07800000160932541, 192.0, 0.0, 0.0, 0.0, 0.0, 0.0, 0.0, 0.0, 0.0, 0.0, 1.612537532748187E9, 2021-02-05 10:05:32.748
69.0, 0.0, 0.0, 41442.63671875, 87930.6640625, -32060.693359375, -10707.423828125, 0.0, 0.0, -0.06400000303983688, 0.9920000433921814, 0.0860000029206276, 192.0, 254.0, 0.0, 31.0, 0.0, 2.0, 176.0, 0.0, 0.0, 0.0, 1.612537532748188E9, 2021-02-05 10:05:32.748
70.0, 0.0, 0.0, 41323.61328125, 87807.7734375, -31803.15625, -10711.357421875, 0.0, 0.0, -0.06400000303983688, 0.9920000433921814, 0.0860000029206276, 192.0, 0.0, 0.0, 0.0, 0.0, 0.0, 0.0, 0.0, 0.0, 0.0, 1.612537532748208E9, 2021-02-05 10:05:32.748
71.0, 0.0, 0.0, 41017.34765625, 87484.75, -31711.37890625, -9795.0478515625, 0.0, 0.0, -0.06400000303983688, 0.9920000433921814, 0.0860000029206276, 192.0, 0.0, 0.0, 0.0, 0.0, 0.0, 0.0, 0.0, 0.0, 0.0, 1.61253753274821E9, 2021-02-05 10:05:32.748
72.0, 0.0, 0.0, 41101.03515625, 87573.234375, -31975.376953125, -9611.40625, 0.0, 0.0, -0.06400000303983688, 0.9920000433921814, 0.0860000029206276, 192.0, 0.0, 0.0, 0.0, 0.0, 0.0, 0.0, 0.0, 0.0, 0.0, 1.612537532748211E9, 2021-02-05 10:05:32.748
73.0, 0.0, 0.0, 41427.79296875, 87916.828125, -32099.40625, -10581.5390625, 0.0, 0.0, -0.06400000303983688, 0.9920000433921814, 0.0860000029206276, 192.0, 0.0, 0.0, 0.0, 0.0, 0.0, 0.0, 0.0, 0.0, 0.0, 1.612537532748212E9, 2021-02-05 10:05:32.748
74.0, 0.0, 0.0, 41381.078125, 87859.5859375, -31846.80859375, -10814.466796875, 0.0, 0.0, -0.06400000303983688, 0.9920000433921814, 0.0860000029206276, 192.0, 0.0, 0.0, 0.0, 0.0, 0.0, 0.0, 0.0, 0.0, 0.0, 1.612537532748213E9, 2021-02-05 10:05:32.748
75.0, 0.0, 0.0, 41033.48828125, 87480.765625, -31700.203125, -9957.1875, 0.0, 0.0, -0.06400000303983688, 0.9920000433921814, 0.0860000029206276, 192.0, 0.0, 0.0, 0.0, 0.0, 0.0, 0.0, 0.0, 0.0, 0.0, 1.612537532748214E9, 2021-02-05 10:05:32.748
76.0, 0.0, 0.0, 41018.5546875, 87467.3984375, -31923.005859375, -9520.546875, 0.0, 0.0, -0.06400000303983688, 0.9920000433921814, 0.0860000029206276, 192.0, 0.0, 0.0, 0.0, 0.0, 0.0, 0.0, 0.0, 0.0, 0.0, 1.612537532807633E9, 2021-02-05 10:05:32.807
77.0, 0.0, 0.0, 41380.65625, 87847.4453125, -32094.66796875, -10426.4853515625, 0.0, 0.0, -0.06400000303983688, 0.9920000433921814, 0.0860000029206276, 192.0, 0.0, 0.0, 0.0, 0.0, 0.0, 0.0, 0.0, 0.0, 0.0, 1.612537532807637E9, 2021-02-05 10:05:32.807
78.0, 0.0, 0.0, 41434.703125, 87897.4296875, -31893.724609375, -10879.1748046875, 0.0, 0.0, -0.06400000303983688, 0.9920000433921814, 0.0860000029206276, 192.0, 0.0, 0.0, 0.0, 0.0, 0.0, 0.0, 0.0, 0.0, 0.0, 1.612537532807638E9, 2021-02-05 10:05:32.807
79.0, 0.0, 0.0, 41115.16015625, 87554.890625, -31694.974609375, -10151.0439453125, 0.0, 0.0, -0.06800000369548798, 0.984000027179718, 0.08800000697374344, 192.0, 253.0, 224.0, 30.0, 192.0, 2.0, 192.0, 0.0, 0.0, 0.0, 1.612537532807639E9, 2021-02-05 10:05:32.807
80.0, 0.0, 0.0, 41010.9140625, 87447.421875, -31863.55078125, -9497.1884765625, 0.0, 0.0, -0.06800000369548798, 0.984000027179718, 0.08800000697374344, 192.0, 0.0, 0.0, 0.0, 0.0, 0.0, 0.0, 0.0, 0.0, 0.0, 1.61253753280764E9, 2021-02-05 10:05:32.807
81.0, 0.0, 0.0, 41332.3515625, 87787.1640625, -32102.06640625, -10237.3896484375, 0.0, 0.0, -0.06800000369548798, 0.984000027179718, 0.08800000697374344, 192.0, 0.0, 0.0, 0.0, 0.0, 0.0, 0.0, 0.0, 0.0, 0.0, 1.612537532807641E9, 2021-02-05 10:05:32.807
82.0, 0.0, 0.0, 41473.99609375, 87937.9765625, -31953.337890625, -10889.45703125, 0.0, 0.0, -0.06800000369548798, 0.984000027179718, 0.08800000697374344, 192.0, 0.0, 0.0, 0.0, 0.0, 0.0, 0.0, 0.0, 0.0, 0.0, 1.612537532807642E9, 2021-02-05 10:05:32.807
83.0, 0.0, 0.0, 41196.9921875, 87639.5546875, -31704.541015625, -10328.271484375, 0.0, 0.0, -0.06800000369548798, 0.984000027179718, 0.08800000697374344, 192.0, 0.0, 0.0, 0.0, 0.0, 0.0, 0.0, 0.0, 0.0, 0.0, 1.612537532807643E9, 2021-02-05 10:05:32.807
84.0, 0.0, 0.0, 40995.64453125, 87430.7890625, -31811.42578125, -9519.0263671875, 0.0, 0.0, -0.06800000369548798, 0.984000027179718, 0.08800000697374344, 192.0, 0.0, 0.0, 0.0, 0.0, 0.0, 0.0, 0.0, 0.0, 0.0, 1.612537532807644E9, 2021-02-05 10:05:32.807
85.0, 0.0, 0.0, 41262.703125, 87725.09375, -32099.541015625, -10060.408203125, 0.0, 0.0, -0.06800000369548798, 0.984000027179718, 0.08800000697374344, 192.0, 0.0, 0.0, 0.0, 0.0, 0.0, 0.0, 0.0, 0.0, 0.0, 1.612537532807645E9, 2021-02-05 10:05:32.807
86.0, 0.0, 0.0, 41480.56640625, 87954.359375, -32012.14453125, -10878.4150390625, 0.0, 0.0, -0.06800000369548798, 0.984000027179718, 0.08800000697374344, 192.0, 0.0, 0.0, 0.0, 0.0, 0.0, 0.0, 0.0, 0.0, 0.0, 1.612537532807646E9, 2021-02-05 10:05:32.807
87.0, 0.0, 0.0, 41236.484375, 87681.5546875, -31758.630859375, -10494.0986328125, 0.0, 0.0, -0.06800000369548798, 0.984000027179718, 0.08800000697374344, 192.0, 0.0, 0.0, 0.0, 0.0, 0.0, 0.0, 0.0, 0.0, 0.0, 1.612537532807647E9, 2021-02-05 10:05:32.807
88.0, 0.0, 0.0, 41005.19140625, 87435.5078125, -31782.234375, -9597.32421875, 0.0, 0.0, -0.06800000369548798, 0.984000027179718, 0.08800000697374344, 192.0, 0.0, 0.0, 0.0, 0.0, 0.0, 0.0, 0.0, 0.0, 0.0, 1.612537532807648E9, 2021-02-05 10:05:32.807
89.0, 0.0, 0.0, 41215.38671875, 87662.890625, -32066.125, -9895.98828125, 0.0, 0.0, -0.06800000369548798, 0.984000027179718, 0.08800000697374344, 192.0, 0.0, 0.0, 0.0, 0.0, 0.0, 0.0, 0.0, 0.0, 0.0, 1.612537532807649E9, 2021-02-05 10:05:32.807
90.0, 0.0, 0.0, 41486.9375, 87949.0859375, -32056.400390625, -10817.953125, 0.0, 0.0, -0.06400000303983688, 0.9820000529289246, 0.08400000631809235, 192.0, 254.0, 0.0, 30.0, 176.0, 2.0, 160.0, 0.0, 0.0, 0.0, 1.61253753280765E9, 2021-02-05 10:05:32.807
91.0, 0.0, 0.0, 41310.9609375, 87757.7265625, -31783.732421875, -10643.20703125, 0.0, 0.0, -0.06400000303983688, 0.9820000529289246, 0.08400000631809235, 192.0, 0.0, 0.0, 0.0, 0.0, 0.0, 0.0, 0.0, 0.0, 0.0, 1.612537532867291E9, 2021-02-05 10:05:32.867
92.0, 0.0, 0.0, 41012.41015625, 87439.7109375, -31750.25, -9704.255859375, 0.0, 0.0, -0.06400000303983688, 0.9820000529289246, 0.08400000631809235, 192.0, 0.0, 0.0, 0.0, 0.0, 0.0, 0.0, 0.0, 0.0, 0.0, 1.612537532867294E9, 2021-02-05 10:05:32.867
93.0, 0.0, 0.0, 41154.1640625, 87596.4140625, -32023.611328125, -9737.224609375, 0.0, 0.0, -0.06400000303983688, 0.9820000529289246, 0.08400000631809235, 192.0, 0.0, 0.0, 0.0, 0.0, 0.0, 0.0, 0.0, 0.0, 0.0, 1.612537532867295E9, 2021-02-05 10:05:32.867
94.0, 0.0, 0.0, 41474.98046875, 87933.703125, -32083.06640625, -10717.19140625, 0.0, 0.0, -0.06400000303983688, 0.9820000529289246, 0.08400000631809235, 192.0, 0.0, 0.0, 0.0, 0.0, 0.0, 0.0, 0.0, 0.0, 0.0, 1.612537532867302E9, 2021-02-05 10:05:32.867
95.0, 0.0, 0.0, 41373.32421875, 87816.3984375, -31824.5234375, -10766.7236328125, 0.0, 0.0, -0.06400000303983688, 0.9820000529289246, 0.08400000631809235, 192.0, 0.0, 0.0, 0.0, 0.0, 0.0, 0.0, 0.0, 0.0, 0.0, 1.612537532867303E9, 2021-02-05 10:05:32.867
96.0, 0.0, 0.0, 41057.78515625, 87483.296875, -31721.080078125, -9849.8994140625, 0.0, 0.0, -0.06400000303983688, 0.9820000529289246, 0.08400000631809235, 192.0, 0.0, 0.0, 0.0, 0.0, 0.0, 0.0, 0.0, 0.0, 0.0, 1.612537532867304E9, 2021-02-05 10:05:32.867
97.0, 0.0, 0.0, 41115.00390625, 87549.140625, -31961.361328125, -9610.892578125, 0.0, 0.0, -0.06400000303983688, 0.9820000529289246, 0.08400000631809235, 192.0, 0.0, 0.0, 0.0, 0.0, 0.0, 0.0, 0.0, 0.0, 0.0, 1.612537532867305E9, 2021-02-05 10:05:32.867
98.0, 0.0, 0.0, 41449.4296875, 87906.6796875, -32095.78515625, -10567.345703125, 0.0, 0.0, -0.06400000303983688, 0.9820000529289246, 0.08400000631809235, 192.0, 0.0, 0.0, 0.0, 0.0, 0.0, 0.0, 0.0, 0.0, 0.0, 1.612537532867306E9, 2021-02-05 10:05:32.867
99.0, 0.0, 0.0, 41435.08203125, 87888.484375, -31858.69921875, -10849.9609375, 0.0, 0.0, -0.06400000303983688, 0.9820000529289246, 0.08400000631809235, 192.0, 0.0, 0.0, 0.0, 0.0, 0.0, 0.0, 0.0, 0.0, 0.0, 1.612537532867308E9, 2021-02-05 10:05:32.867
100.0, 0.0, 0.0, 41089.90234375, 87518.1171875, -31701.880859375, -10017.470703125, 0.0, 0.0, -0.06599999964237213, 0.9860000610351562, 0.0820000022649765, 192.0, 253.0, 240.0, 30.0, 208.0, 2.0, 144.0, 0.0, 0.0, 0.0, 1.612537532867309E9, 2021-02-05 10:05:32.867
101.0, 0.0, 0.0, 41048.88671875, 87479.453125, -31916.546875, -9527.6767578125, 0.0, 0.0, -0.06599999964237213, 0.9860000610351562, 0.0820000022649765, 192.0, 0.0, 0.0, 0.0, 0.0, 0.0, 0.0, 0.0, 0.0, 0.0, 1.61253753286731E9, 2021-02-05 10:05:32.867
102.0, 0.0, 0.0, 41398.26953125, 87846.78125, -32107.69921875, -10396.265625, 0.0, 0.0, -0.06599999964237213, 0.9860000610351562, 0.0820000022649765, 192.0, 0.0, 0.0, 0.0, 0.0, 0.0, 0.0, 0.0, 0.0, 0.0, 1.612537532867311E9, 2021-02-05 10:05:32.867
103.0, 0.0, 0.0, 41476.453125, 87926.21875, -31909.05859375, -10890.462890625, 0.0, 0.0, -0.06599999964237213, 0.9860000610351562, 0.0820000022649765, 192.0, 0.0, 0.0, 0.0, 0.0, 0.0, 0.0, 0.0, 0.0, 0.0, 1.612537532867312E9, 2021-02-05 10:05:32.867
104.0, 0.0, 0.0, 41167.30859375, 87589.734375, -31694.728515625, -10189.265625, 0.0, 0.0, -0.06599999964237213, 0.9860000610351562, 0.0820000022649765, 192.0, 0.0, 0.0, 0.0, 0.0, 0.0, 0.0, 0.0, 0.0, 0.0, 1.612537532867313E9, 2021-02-05 10:05:32.867
105.0, 0.0, 0.0, 41050.07421875, 87474.2890625, -31845.736328125, -9506.21875, 0.0, 0.0, -0.06599999964237213, 0.9860000610351562, 0.0820000022649765, 192.0, 0.0, 0.0, 0.0, 0.0, 0.0, 0.0, 0.0, 0.0, 0.0, 1.612537532867314E9, 2021-02-05 10:05:32.867
106.0, 0.0, 0.0, 41354.390625, 87807.171875, -32091.42578125, -10217.7646484375, 0.0, 0.0, -0.06599999964237213, 0.9860000610351562, 0.0820000022649765, 192.0, 0.0, 0.0, 0.0, 0.0, 0.0, 0.0, 0.0, 0.0, 0.0, 1.612537532928129E9, 2021-02-05 10:05:32.928
107.0, 0.0, 0.0, 41491.6328125, 87955.8515625, -31962.994140625, -10896.1171875, 0.0, 0.0, -0.06599999964237213, 0.9860000610351562, 0.0820000022649765, 192.0, 0.0, 0.0, 0.0, 0.0, 0.0, 0.0, 0.0, 0.0, 0.0, 1.612537532928132E9, 2021-02-05 10:05:32.928
108.0, 0.0, 0.0, 41219.83203125, 87664.5234375, -31715.380859375, -10360.7265625, 0.0, 0.0, -0.06599999964237213, 0.9860000610351562, 0.0820000022649765, 192.0, 0.0, 0.0, 0.0, 0.0, 0.0, 0.0, 0.0, 0.0, 0.0, 1.612537532928133E9, 2021-02-05 10:05:32.928
109.0, 0.0, 0.0, 41008.5, 87442.078125, -31805.279296875, -9523.8544921875, 0.0, 0.0, -0.06599999964237213, 0.9860000610351562, 0.0820000022649765, 192.0, 0.0, 0.0, 0.0, 0.0, 0.0, 0.0, 0.0, 0.0, 0.0, 1.612537532928134E9, 2021-02-05 10:05:32.928
110.0, 0.0, 0.0, 41274.55078125, 87728.265625, -32082.978515625, -10017.3134765625, 0.0, 0.0, -0.06400000303983688, 0.9900000691413879, 0.08000000566244125, 192.0, 254.0, 0.0, 30.0, 240.0, 2.0, 128.0, 0.0, 0.0, 0.0, 1.612537532928136E9, 2021-02-05 10:05:32.928
111.0, 0.0, 0.0, 41506.98828125, 87973.53125, -32009.619140625, -10857.404296875, 0.0, 0.0, -0.06400000303983688, 0.9900000691413879, 0.08000000566244125, 192.0, 0.0, 0.0, 0.0, 0.0, 0.0, 0.0, 0.0, 0.0, 0.0, 1.612537532928137E9, 2021-02-05 10:05:32.928
112.0, 0.0, 0.0, 41279.3125, 87727.421875, -31729.91015625, -10518.775390625, 0.0, 0.0, -0.06400000303983688, 0.9900000691413879, 0.08000000566244125, 192.0, 0.0, 0.0, 0.0, 0.0, 0.0, 0.0, 0.0, 0.0, 0.0, 1.612537532928138E9, 2021-02-05 10:05:32.928
113.0, 0.0, 0.0, 41005.34765625, 87439.84375, -31756.732421875, -9598.9560546875, 0.0, 0.0, -0.06400000303983688, 0.9900000691413879, 0.08000000566244125, 192.0, 0.0, 0.0, 0.0, 0.0, 0.0, 0.0, 0.0, 0.0, 0.0, 1.612537532928139E9, 2021-02-05 10:05:32.928
114.0, 0.0, 0.0, 41217.15234375, 87664.4140625, -32046.431640625, -9839.0810546875, 0.0, 0.0, -0.06400000303983688, 0.9900000691413879, 0.08000000566244125, 192.0, 0.0, 0.0, 0.0, 0.0, 0.0, 0.0, 0.0, 0.0, 0.0, 1.61253753292814E9, 2021-02-05 10:05:32.928
115.0, 0.0, 0.0, 41513.7578125, 87972.84375, -32036.5078125, -10779.3515625, 0.0, 0.0, -0.06400000303983688, 0.9900000691413879, 0.08000000566244125, 192.0, 0.0, 0.0, 0.0, 0.0, 0.0, 0.0, 0.0, 0.0, 0.0, 1.612537532928141E9, 2021-02-05 10:05:32.928
116.0, 0.0, 0.0, 41354.50390625, 87800.0390625, -31765.740234375, -10655.2099609375, 0.0, 0.0, -0.06400000303983688, 0.9900000691413879, 0.08000000566244125, 192.0, 0.0, 0.0, 0.0, 0.0, 0.0, 0.0, 0.0, 0.0, 0.0, 1.612537532928142E9, 2021-02-05 10:05:32.928
117.0, 0.0, 0.0, 41040.34765625, 87470.0390625, -31718.8671875, -9716.50390625, 0.0, 0.0, -0.06400000303983688, 0.9900000691413879, 0.08000000566244125, 192.0, 0.0, 0.0, 0.0, 0.0, 0.0, 0.0, 0.0, 0.0, 0.0, 1.612537532928148E9, 2021-02-05 10:05:32.928
118.0, 0.0, 0.0, 41150.69921875, 87594.2734375, -32004.43359375, -9687.15625, 0.0, 0.0, -0.06400000303983688, 0.9900000691413879, 0.08000000566244125, 192.0, 0.0, 0.0, 0.0, 0.0, 0.0, 0.0, 0.0, 0.0, 0.0, 1.612537532928149E9, 2021-02-05 10:05:32.928
119.0, 0.0, 0.0, 41471.046875, 87931.8515625, -32091.896484375, -10664.53125, 0.0, 0.0, -0.06400000303983688, 0.9900000691413879, 0.08000000566244125, 192.0, 0.0, 0.0, 0.0, 0.0, 0.0, 0.0, 0.0, 0.0, 0.0, 1.612537532928157E9, 2021-02-05 10:05:32.928
120.0, 0.0, 0.0, 41410.60546875, 87859.6328125, -31816.8359375, -10763.75, 0.0, 0.0, -0.07000000029802322, 0.9860000610351562, 0.09000000357627869, 192.0, 253.0, 208.0, 30.0, 208.0, 2.0, 208.0, 0.0, 0.0, 0.0, 1.612537532928158E9, 2021-02-05 10:05:32.928
121.0, 0.0, 0.0, 41090.84375, 87520.734375, -31685.80859375, -9871.6474609375, 0.0, 0.0, -0.07000000029802322, 0.9860000610351562, 0.09000000357627869, 192.0, 0.0, 0.0, 0.0, 0.0, 0.0, 0.0, 0.0, 0.0, 0.0, 1.612537532987838E9, 2021-02-05 10:05:32.987
122.0, 0.0, 0.0, 41114.33203125, 87552.6328125, -31932.482421875, -9582.326171875, 0.0, 0.0, -0.07000000029802322, 0.9860000610351562, 0.09000000357627869, 192.0, 0.0, 0.0, 0.0, 0.0, 0.0, 0.0, 0.0, 0.0, 0.0, 1.612537532987842E9, 2021-02-05 10:05:32.987
123.0, 0.0, 0.0, 41444.24609375, 87903.0625, -32086.419921875, -10520.8984375, 0.0, 0.0, -0.07000000029802322, 0.9860000610351562, 0.09000000357627869, 192.0, 0.0, 0.0, 0.0, 0.0, 0.0, 0.0, 0.0, 0.0, 0.0, 1.612537532987843E9, 2021-02-05 10:05:32.987
124.0, 0.0, 0.0, 41451.66796875, 87908.984375, -31867.1484375, -10848.0615234375, 0.0, 0.0, -0.07000000029802322, 0.9860000610351562, 0.09000000357627869, 192.0, 0.0, 0.0, 0.0, 0.0, 0.0, 0.0, 0.0, 0.0, 0.0, 1.612537532987845E9, 2021-02-05 10:05:32.987
125.0, 0.0, 0.0, 41122.24609375, 87556.5625, -31692.73828125, -10041.341796875, 0.0, 0.0, -0.07000000029802322, 0.9860000610351562, 0.09000000357627869, 192.0, 0.0, 0.0, 0.0, 0.0, 0.0, 0.0, 0.0, 0.0, 0.0, 1.612537532987846E9, 2021-02-05 10:05:32.987
126.0, 0.0, 0.0, 41067.6640625, 87501.6640625, -31890.193359375, -9508.587890625, 0.0, 0.0, -0.07000000029802322, 0.9860000610351562, 0.09000000357627869, 192.0, 0.0, 0.0, 0.0, 0.0, 0.0, 0.0, 0.0, 0.0, 0.0, 1.612537532987848E9, 2021-02-05 10:05:32.987
127.0, 0.0, 0.0, 41411.3671875, 87867.3828125, -32093.884765625, -10353.193359375, 0.0, 0.0, -0.07000000029802322, 0.9860000610351562, 0.09000000357627869, 192.0, 0.0, 0.0, 0.0, 0.0, 0.0, 0.0, 0.0, 0.0, 0.0, 1.612537532987849E9, 2021-02-05 10:05:32.987
128.0, 0.0, 0.0, 41488.09765625, 87944.7421875, -31911.607421875, -10882.7509765625, 0.0, 0.0, -0.07000000029802322, 0.9860000610351562, 0.09000000357627869, 192.0, 0.0, 0.0, 0.0, 0.0, 0.0, 0.0, 0.0, 0.0, 0.0, 1.612537532987851E9, 2021-02-05 10:05:32.987
129.0, 0.0, 0.0, 41176.16015625, 87607.0546875, -31698.259765625, -10204.755859375, 0.0, 0.0, -0.07000000029802322, 0.9860000610351562, 0.09000000357627869, 192.0, 0.0, 0.0, 0.0, 0.0, 0.0, 0.0, 0.0, 0.0, 0.0, 1.612537532987852E9, 2021-02-05 10:05:32.987
130.0, 0.0, 0.0, 41043.0078125, 87470.0859375, -31837.64453125, -9489.701171875, 0.0, 0.0, -0.06800000369548798, 0.984000027179718, 0.09200000762939453, 192.0, 253.0, 224.0, 30.0, 192.0, 2.0, 224.0, 0.0, 0.0, 0.0, 1.612537532987853E9, 2021-02-05 10:05:32.987
131.0, 0.0, 0.0, 41353.02734375, 87802.6328125, -32086.6875, -10170.7138671875, 0.0, 0.0, -0.06800000369548798, 0.984000027179718, 0.09200000762939453, 192.0, 0.0, 0.0, 0.0, 0.0, 0.0, 0.0, 0.0, 0.0, 0.0, 1.612537532987855E9, 2021-02-05 10:05:32.987
132.0, 0.0, 0.0, 41525.5390625, 87981.984375, -31957.494140625, -10888.6298828125, 0.0, 0.0, -0.06800000369548798, 0.984000027179718, 0.09200000762939453, 192.0, 0.0, 0.0, 0.0, 0.0, 0.0, 0.0, 0.0, 0.0, 0.0, 1.612537532987857E9, 2021-02-05 10:05:32.987
133.0, 0.0, 0.0, 41255.93359375, 87687.390625, -31703.69140625, -10392.7119140625, 0.0, 0.0, -0.06800000369548798, 0.984000027179718, 0.09200000762939453, 192.0, 0.0, 0.0, 0.0, 0.0, 0.0, 0.0, 0.0, 0.0, 0.0, 1.612537532987858E9, 2021-02-05 10:05:32.987
134.0, 0.0, 0.0, 41020.58984375, 87448.578125, -31791.064453125, -9532.4150390625, 0.0, 0.0, -0.06800000369548798, 0.984000027179718, 0.09200000762939453, 192.0, 0.0, 0.0, 0.0, 0.0, 0.0, 0.0, 0.0, 0.0, 0.0, 1.612537532987859E9, 2021-02-05 10:05:32.987
135.0, 0.0, 0.0, 41285.390625, 87735.421875, -32067.0859375, -9983.09375, 0.0, 0.0, -0.06800000369548798, 0.984000027179718, 0.09200000762939453, 192.0, 0.0, 0.0, 0.0, 0.0, 0.0, 0.0, 0.0, 0.0, 0.0, 1.612537532987861E9, 2021-02-05 10:05:32.987
136.0, 0.0, 0.0, 41515.63671875, 87974.0234375, -32001.1484375, -10824.48046875, 0.0, 0.0, -0.06800000369548798, 0.984000027179718, 0.09200000762939453, 192.0, 0.0, 0.0, 0.0, 0.0, 0.0, 0.0, 0.0, 0.0, 0.0, 1.612537533048237E9, 2021-02-05 10:05:33.048
137.0, 0.0, 0.0, 41300.234375, 87739.4921875, -31745.80078125, -10509.767578125, 0.0, 0.0, -0.06800000369548798, 0.984000027179718, 0.09200000762939453, 192.0, 0.0, 0.0, 0.0, 0.0, 0.0, 0.0, 0.0, 0.0, 0.0, 1.612537533048241E9, 2021-02-05 10:05:33.048
138.0, 0.0, 0.0, 41024.74609375, 87448.8515625, -31757.111328125, -9613.7080078125, 0.0, 0.0, -0.06800000369548798, 0.984000027179718, 0.09200000762939453, 192.0, 0.0, 0.0, 0.0, 0.0, 0.0, 0.0, 0.0, 0.0, 0.0, 1.612537533048243E9, 2021-02-05 10:05:33.048
139.0, 0.0, 0.0, 41220.7265625, 87665.015625, -32030.541015625, -9814.6953125, 0.0, 0.0, -0.06800000369548798, 0.984000027179718, 0.09200000762939453, 192.0, 0.0, 0.0, 0.0, 0.0, 0.0, 0.0, 0.0, 0.0, 0.0, 1.612537533048244E9, 2021-02-05 10:05:33.048
140.0, 0.0, 0.0, 41495.65625, 87957.1484375, -32045.181640625, -10738.783203125, 0.0, 0.0, -0.06800000369548798, 0.984000027179718, 0.09200000762939453, 192.0, 0.0, 0.0, 0.0, 0.0, 0.0, 0.0, 0.0, 0.0, 0.0, 1.612537533048252E9, 2021-02-05 10:05:33.048
141.0, 0.0, 0.0, 41351.53125, 87799.7734375, -31791.064453125, -10652.6845703125, 0.0, 0.0, -0.07000000029802322, 0.9920000433921814, 0.08800000697374344, 192.0, 253.0, 208.0, 31.0, 0.0, 2.0, 192.0, 0.0, 0.0, 0.0, 1.612537533048254E9, 2021-02-05 10:05:33.048
142.0, 0.0, 0.0, 41061.2265625, 87490.6015625, -31713.2578125, -9751.216796875, 0.0, 0.0, -0.07000000029802322, 0.9920000433921814, 0.08800000697374344, 192.0, 0.0, 0.0, 0.0, 0.0, 0.0, 0.0, 0.0, 0.0, 0.0, 1.612537533048255E9, 2021-02-05 10:05:33.048
143.0, 0.0, 0.0, 41166.6796875, 87605.5390625, -31973.54296875, -9678.7294921875, 0.0, 0.0, -0.07000000029802322, 0.9920000433921814, 0.08800000697374344, 192.0, 0.0, 0.0, 0.0, 0.0, 0.0, 0.0, 0.0, 0.0, 0.0, 1.612537533048257E9, 2021-02-05 10:05:33.048
144.0, 0.0, 0.0, 41480.5, 87944.1171875, -32062.615234375, -10631.4951171875, 0.0, 0.0, -0.07000000029802322, 0.9920000433921814, 0.08800000697374344, 192.0, 0.0, 0.0, 0.0, 0.0, 0.0, 0.0, 0.0, 0.0, 0.0, 1.612537533048258E9, 2021-02-05 10:05:33.048
145.0, 0.0, 0.0, 41424.21875, 87880.3984375, -31815.359375, -10768.3994140625, 0.0, 0.0, -0.07000000029802322, 0.9920000433921814, 0.08800000697374344, 192.0, 0.0, 0.0, 0.0, 0.0, 0.0, 0.0, 0.0, 0.0, 0.0, 1.61253753304826E9, 2021-02-05 10:05:33.048
146.0, 0.0, 0.0, 41104.27734375, 87539.015625, -31684.87109375, -9912.931640625, 0.0, 0.0, -0.07000000029802322, 0.9920000433921814, 0.08800000697374344, 192.0, 0.0, 0.0, 0.0, 0.0, 0.0, 0.0, 0.0, 0.0, 0.0, 1.612537533048261E9, 2021-02-05 10:05:33.048
147.0, 0.0, 0.0, 41111.29296875, 87552.25, -31926.4921875, -9577.7666015625, 0.0, 0.0, -0.07000000029802322, 0.9920000433921814, 0.08800000697374344, 192.0, 0.0, 0.0, 0.0, 0.0, 0.0, 0.0, 0.0, 0.0, 0.0, 1.612537533048263E9, 2021-02-05 10:05:33.048
148.0, 0.0, 0.0, 41450.94921875, 87910.484375, -32083.15625, -10491.2822265625, 0.0, 0.0, -0.07000000029802322, 0.9920000433921814, 0.08800000697374344, 192.0, 0.0, 0.0, 0.0, 0.0, 0.0, 0.0, 0.0, 0.0, 0.0, 1.612537533048264E9, 2021-02-05 10:05:33.048
149.0, 0.0, 0.0, 41470.0625, 87926.015625, -31866.322265625, -10847.189453125, 0.0, 0.0, -0.07000000029802322, 0.9920000433921814, 0.08800000697374344, 192.0, 0.0, 0.0, 0.0, 0.0, 0.0, 0.0, 0.0, 0.0, 0.0, 1.612537533048266E9, 2021-02-05 10:05:33.048
150.0, 0.0, 0.0, 41165.38671875, 87601.375, -31673.44921875, -10088.5712890625, 0.0, 0.0, -0.07000000029802322, 0.9920000433921814, 0.08800000697374344, 192.0, 0.0, 0.0, 0.0, 0.0, 0.0, 0.0, 0.0, 0.0, 0.0, 1.612537533048267E9, 2021-02-05 10:05:33.048
151.0, 0.0, 0.0, 41064.37890625, 87509.625, -31871.642578125, -9523.2734375, 0.0, 0.0, -0.07000000029802322, 0.9920000433921814, 0.0820000022649765, 192.0, 253.0, 208.0, 31.0, 0.0, 2.0, 144.0, 0.0, 0.0, 0.0, 1.612537533107514E9, 2021-02-05 10:05:33.107
152.0, 0.0, 0.0, 41404.1015625, 87872.125, -32082.173828125, -10324.203125, 0.0, 0.0, -0.07000000029802322, 0.9920000433921814, 0.0820000022649765, 192.0, 0.0, 0.0, 0.0, 0.0, 0.0, 0.0, 0.0, 0.0, 0.0, 1.612537533107517E9, 2021-02-05 10:05:33.107
153.0, 0.0, 0.0, 41509.734375, 87979.0546875, -31903.1796875, -10883.7119140625, 0.0, 0.0, -0.07000000029802322, 0.9920000433921814, 0.0820000022649765, 192.0, 0.0, 0.0, 0.0, 0.0, 0.0, 0.0, 0.0, 0.0, 0.0, 1.612537533107518E9, 2021-02-05 10:05:33.107
154.0, 0.0, 0.0, 41208.09765625, 87651.3125, -31689.83203125, -10259.986328125, 0.0, 0.0, -0.07000000029802322, 0.9920000433921814, 0.0820000022649765, 192.0, 0.0, 0.0, 0.0, 0.0, 0.0, 0.0, 0.0, 0.0, 0.0, 1.612537533107519E9, 2021-02-05 10:05:33.107
155.0, 0.0, 0.0, 41040.28125, 87474.6640625, -31820.6796875, -9519.451171875, 0.0, 0.0, -0.07000000029802322, 0.9920000433921814, 0.0820000022649765, 192.0, 0.0, 0.0, 0.0, 0.0, 0.0, 0.0, 0.0, 0.0, 0.0, 1.61253753310752E9, 2021-02-05 10:05:33.107
156.0, 0.0, 0.0, 41336.375, 87791.125, -32076.384765625, -10138.9072265625, 0.0, 0.0, -0.07000000029802322, 0.9920000433921814, 0.0820000022649765, 192.0, 0.0, 0.0, 0.0, 0.0, 0.0, 0.0, 0.0, 0.0, 0.0, 1.612537533107521E9, 2021-02-05 10:05:33.107
157.0, 0.0, 0.0, 41518.4296875, 87982.2109375, -31962.859375, -10872.3798828125, 0.0, 0.0, -0.07000000029802322, 0.9920000433921814, 0.0820000022649765, 192.0, 0.0, 0.0, 0.0, 0.0, 0.0, 0.0, 0.0, 0.0, 0.0, 1.612537533107522E9, 2021-02-05 10:05:33.107
158.0, 0.0, 0.0, 41247.86328125, 87696.5078125, -31720.185546875, -10415.197265625, 0.0, 0.0, -0.07000000029802322, 0.9920000433921814, 0.0820000022649765, 192.0, 0.0, 0.0, 0.0, 0.0, 0.0, 0.0, 0.0, 0.0, 0.0, 1.612537533107523E9, 2021-02-05 10:05:33.107
159.0, 0.0, 0.0, 41026.984375, 87465.1875, -31778.45703125, -9562.6572265625, 0.0, 0.0, -0.07000000029802322, 0.9920000433921814, 0.0820000022649765, 192.0, 0.0, 0.0, 0.0, 0.0, 0.0, 0.0, 0.0, 0.0, 0.0, 1.612537533107524E9, 2021-02-05 10:05:33.107
160.0, 0.0, 0.0, 41272.671875, 87723.6015625, -32052.490234375, -9954.259765625, 0.0, 0.0, -0.07000000029802322, 0.9920000433921814, 0.0820000022649765, 192.0, 0.0, 0.0, 0.0, 0.0, 0.0, 0.0, 0.0, 0.0, 0.0, 1.612537533107525E9, 2021-02-05 10:05:33.107
161.0, 0.0, 0.0, 41519.59375, 87983.703125, -32011.318359375, -10816.388671875, 0.0, 0.0, -0.07000000029802322, 0.984000027179718, 0.08000000566244125, 192.0, 253.0, 208.0, 30.0, 192.0, 2.0, 128.0, 0.0, 0.0, 0.0, 1.612537533107526E9, 2021-02-05 10:05:33.107
162.0, 0.0, 0.0, 41322.921875, 87774.515625, -31744.169921875, -10563.4560546875, 0.0, 0.0, -0.07000000029802322, 0.984000027179718, 0.08000000566244125, 192.0, 0.0, 0.0, 0.0, 0.0, 0.0, 0.0, 0.0, 0.0, 0.0, 1.612537533107527E9, 2021-02-05 10:05:33.107
163.0, 0.0, 0.0, 41024.8828125, 87458.75, -31749.109375, -9649.11328125, 0.0, 0.0, -0.07000000029802322, 0.984000027179718, 0.08000000566244125, 192.0, 0.0, 0.0, 0.0, 0.0, 0.0, 0.0, 0.0, 0.0, 0.0, 1.612537533107534E9, 2021-02-05 10:05:33.107
164.0, 0.0, 0.0, 41202.2890625, 87655.3359375, -32023.65625, -9789.013671875, 0.0, 0.0, -0.07000000029802322, 0.984000027179718, 0.08000000566244125, 192.0, 0.0, 0.0, 0.0, 0.0, 0.0, 0.0, 0.0, 0.0, 0.0, 1.612537533107535E9, 2021-02-05 10:05:33.107
165.0, 0.0, 0.0, 41495.765625, 87968.4375, -32051.259765625, -10730.2900390625, 0.0, 0.0, -0.07000000029802322, 0.984000027179718, 0.08000000566244125, 192.0, 0.0, 0.0, 0.0, 0.0, 0.0, 0.0, 0.0, 0.0, 0.0, 1.612537533107536E9, 2021-02-05 10:05:33.107
166.0, 0.0, 0.0, 41377.8828125, 87834.8203125, -31781.876953125, -10692.6943359375, 0.0, 0.0, -0.07000000029802322, 0.984000027179718, 0.08000000566244125, 192.0, 0.0, 0.0, 0.0, 0.0, 0.0, 0.0, 0.0, 0.0, 0.0, 1.612537533167357E9, 2021-02-05 10:05:33.167
167.0, 0.0, 0.0, 41084.96484375, 87513.578125, -31697.34375, -9792.6123046875, 0.0, 0.0, -0.07000000029802322, 0.984000027179718, 0.08000000566244125, 192.0, 0.0, 0.0, 0.0, 0.0, 0.0, 0.0, 0.0, 0.0, 0.0, 1.61253753316736E9, 2021-02-05 10:05:33.167
168.0, 0.0, 0.0, 41162.97265625, 87605.0, -31950.4765625, -9658.322265625, 0.0, 0.0, -0.07000000029802322, 0.984000027179718, 0.08000000566244125, 192.0, 0.0, 0.0, 0.0, 0.0, 0.0, 0.0, 0.0, 0.0, 0.0, 1.612537533167361E9, 2021-02-05 10:05:33.167
169.0, 0.0, 0.0, 41464.13671875, 87931.1796875, -32071.64453125, -10602.7958984375, 0.0, 0.0, -0.07000000029802322, 0.984000027179718, 0.08000000566244125, 192.0, 0.0, 0.0, 0.0, 0.0, 0.0, 0.0, 0.0, 0.0, 0.0, 1.612537533167362E9, 2021-02-05 10:05:33.167
170.0, 0.0, 0.0, 41435.99609375, 87897.4296875, -31823.361328125, -10790.05859375, 0.0, 0.0, -0.07000000029802322, 0.984000027179718, 0.08000000566244125, 192.0, 0.0, 0.0, 0.0, 0.0, 0.0, 0.0, 0.0, 0.0, 0.0, 1.612537533167364E9, 2021-02-05 10:05:33.167
171.0, 0.0, 0.0, 41109.75, 87542.8203125, -31681.0703125, -9945.498046875, 0.0, 0.0, -0.06800000369548798, 0.9800000190734863, 0.0820000022649765, 192.0, 253.0, 224.0, 30.0, 160.0, 2.0, 144.0, 0.0, 0.0, 0.0, 1.612537533167365E9, 2021-02-05 10:05:33.167
172.0, 0.0, 0.0, 41100.96875, 87537.765625, -31910.0859375, -9563.685546875, 0.0, 0.0, -0.06800000369548798, 0.9800000190734863, 0.0820000022649765, 192.0, 0.0, 0.0, 0.0, 0.0, 0.0, 0.0, 0.0, 0.0, 0.0, 1.612537533167366E9, 2021-02-05 10:05:33.167
173.0, 0.0, 0.0, 41434.12109375, 87901.25, -32079.6015625, -10461.15234375, 0.0, 0.0, -0.06800000369548798, 0.9800000190734863, 0.0820000022649765, 192.0, 0.0, 0.0, 0.0, 0.0, 0.0, 0.0, 0.0, 0.0, 0.0, 1.612537533167367E9, 2021-02-05 10:05:33.167
174.0, 0.0, 0.0, 41456.3359375, 87916.2734375, -31881.3203125, -10849.6923828125, 0.0, 0.0, -0.06800000369548798, 0.9800000190734863, 0.0820000022649765, 192.0, 0.0, 0.0, 0.0, 0.0, 0.0, 0.0, 0.0, 0.0, 0.0, 1.612537533167368E9, 2021-02-05 10:05:33.167
175.0, 0.0, 0.0, 41133.9375, 87574.734375, -31698.908203125, -10110.140625, 0.0, 0.0, -0.06800000369548798, 0.9800000190734863, 0.0820000022649765, 192.0, 0.0, 0.0, 0.0, 0.0, 0.0, 0.0, 0.0, 0.0, 0.0, 1.612537533167369E9, 2021-02-05 10:05:33.167
176.0, 0.0, 0.0, 41032.6171875, 87501.9140625, -31862.478515625, -9519.80859375, 0.0, 0.0, -0.06800000369548798, 0.9800000190734863, 0.0820000022649765, 192.0, 0.0, 0.0, 0.0, 0.0, 0.0, 0.0, 0.0, 0.0, 0.0, 1.61253753316737E9, 2021-02-05 10:05:33.167
177.0, 0.0, 0.0, 41365.87890625, 87854.2421875, -32072.71875, -10297.1357421875, 0.0, 0.0, -0.06800000369548798, 0.9800000190734863, 0.0820000022649765, 192.0, 0.0, 0.0, 0.0, 0.0, 0.0, 0.0, 0.0, 0.0, 0.0, 1.612537533167371E9, 2021-02-05 10:05:33.167
178.0, 0.0, 0.0, 41468.296875, 87964.3515625, -31925.083984375, -10884.3828125, 0.0, 0.0, -0.06800000369548798, 0.9800000190734863, 0.0820000022649765, 192.0, 0.0, 0.0, 0.0, 0.0, 0.0, 0.0, 0.0, 0.0, 0.0, 1.612537533167372E9, 2021-02-05 10:05:33.167
179.0, 0.0, 0.0, 41189.66015625, 87661.0546875, -31689.498046875, -10293.4697265625, 0.0, 0.0, -0.06800000369548798, 0.9800000190734863, 0.0820000022649765, 192.0, 0.0, 0.0, 0.0, 0.0, 0.0, 0.0, 0.0, 0.0, 0.0, 1.612537533167373E9, 2021-02-05 10:05:33.167
180.0, 0.0, 0.0, 41014.17578125, 87476.96875, -31803.826171875, -9526.4921875, 0.0, 0.0, -0.06800000369548798, 0.9800000190734863, 0.0820000022649765, 192.0, 0.0, 0.0, 0.0, 0.0, 0.0, 0.0, 0.0, 0.0, 0.0, 1.612537533167374E9, 2021-02-05 10:05:33.167
181.0, 0.0, 0.0, 41284.96875, 87765.90625, -32075.892578125, -10100.775390625, 0.0, 0.0, -0.06800000369548798, 0.9860000610351562, 0.0820000022649765, 192.0, 253.0, 224.0, 30.0, 208.0, 2.0, 144.0, 0.0, 0.0, 0.0, 1.61253753322763E9, 2021-02-05 10:05:33.227
182.0, 0.0, 0.0, 41486.4453125, 87974.8515625, -31980.046875, -10862.8134765625, 0.0, 0.0, -0.06800000369548798, 0.9860000610351562, 0.0820000022649765, 192.0, 0.0, 0.0, 0.0, 0.0, 0.0, 0.0, 0.0, 0.0, 0.0, 1.612537533227633E9, 2021-02-05 10:05:33.227
183.0, 0.0, 0.0, 41255.3515625, 87726.546875, -31713.302734375, -10457.419921875, 0.0, 0.0, -0.06800000369548798, 0.9860000610351562, 0.0820000022649765, 192.0, 0.0, 0.0, 0.0, 0.0, 0.0, 0.0, 0.0, 0.0, 0.0, 1.612537533227635E9, 2021-02-05 10:05:33.227
184.0, 0.0, 0.0, 41003.3125, 87465.3046875, -31765.560546875, -9581.1640625, 0.0, 0.0, -0.06800000369548798, 0.9860000610351562, 0.0820000022649765, 192.0, 0.0, 0.0, 0.0, 0.0, 0.0, 0.0, 0.0, 0.0, 0.0, 1.612537533227636E9, 2021-02-05 10:05:33.227
185.0, 0.0, 0.0, 41242.83203125, 87718.6328125, -32042.923828125, -9928.5107421875, 0.0, 0.0, -0.06800000369548798, 0.9860000610351562, 0.0820000022649765, 192.0, 0.0, 0.0, 0.0, 0.0, 0.0, 0.0, 0.0, 0.0, 0.0, 1.612537533227637E9, 2021-02-05 10:05:33.227
186.0, 0.0, 0.0, 41487.00390625, 87974.359375, -32018.73828125, -10811.6953125, 0.0, 0.0, -0.06800000369548798, 0.9860000610351562, 0.0820000022649765, 192.0, 0.0, 0.0, 0.0, 0.0, 0.0, 0.0, 0.0, 0.0, 0.0, 1.612537533227638E9, 2021-02-05 10:05:33.227
187.0, 0.0, 0.0, 41302.2890625, 87777.484375, -31761.626953125, -10597.5654296875, 0.0, 0.0, -0.06800000369548798, 0.9860000610351562, 0.0820000022649765, 192.0, 0.0, 0.0, 0.0, 0.0, 0.0, 0.0, 0.0, 0.0, 0.0, 1.612537533227646E9, 2021-02-05 10:05:33.227
188.0, 0.0, 0.0, 41019.71875, 87479.671875, -31732.255859375, -9684.2509765625, 0.0, 0.0, -0.06800000369548798, 0.9860000610351562, 0.0820000022649765, 192.0, 0.0, 0.0, 0.0, 0.0, 0.0, 0.0, 0.0, 0.0, 0.0, 1.612537533227647E9, 2021-02-05 10:05:33.227
189.0, 0.0, 0.0, 41170.4375, 87639.109375, -32015.453125, -9766.3935546875, 0.0, 0.0, -0.06800000369548798, 0.9860000610351562, 0.0820000022649765, 192.0, 0.0, 0.0, 0.0, 0.0, 0.0, 0.0, 0.0, 0.0, 0.0, 1.612537533227648E9, 2021-02-05 10:05:33.227
190.0, 0.0, 0.0, 41474.5078125, 87961.6640625, -32057.40625, -10716.119140625, 0.0, 0.0, -0.06800000369548798, 0.9860000610351562, 0.0820000022649765, 192.0, 0.0, 0.0, 0.0, 0.0, 0.0, 0.0, 0.0, 0.0, 0.0, 1.612537533227649E9, 2021-02-05 10:05:33.227
191.0, 0.0, 0.0, 41358.125, 87831.3984375, -31794.7734375, -10721.5283203125, 0.0, 0.0, -0.06800000369548798, 0.9860000610351562, 0.0820000022649765, 192.0, 0.0, 0.0, 0.0, 0.0, 0.0, 0.0, 0.0, 0.0, 0.0, 1.61253753322765E9, 2021-02-05 10:05:33.227
192.0, 0.0, 0.0, 41039.27734375, 87487.25, -31708.98828125, -9824.0830078125, 0.0, 0.0, -0.06599999964237213, 0.9960000514984131, 0.08400000631809235, 192.0, 253.0, 240.0, 31.0, 32.0, 2.0, 160.0, 0.0, 0.0, 0.0, 1.612537533227651E9, 2021-02-05 10:05:33.227
193.0, 0.0, 0.0, 41098.10546875, 87557.5234375, -31969.720703125, -9633.310546875, 0.0, 0.0, -0.06599999964237213, 0.9960000514984131, 0.08400000631809235, 192.0, 0.0, 0.0, 0.0, 0.0, 0.0, 0.0, 0.0, 0.0, 0.0, 1.612537533227652E9, 2021-02-05 10:05:33.227
194.0, 0.0, 0.0, 41442.66015625, 87919.890625, -32088.4765625, -10587.6181640625, 0.0, 0.0, -0.06599999964237213, 0.9960000514984131, 0.08400000631809235, 192.0, 0.0, 0.0, 0.0, 0.0, 0.0, 0.0, 0.0, 0.0, 0.0, 1.612537533227653E9, 2021-02-05 10:05:33.227
195.0, 0.0, 0.0, 41413.3984375, 87883.28125, -31843.009765625, -10819.517578125, 0.0, 0.0, -0.06599999964237213, 0.9960000514984131, 0.08400000631809235, 192.0, 0.0, 0.0, 0.0, 0.0, 0.0, 0.0, 0.0, 0.0, 0.0, 1.612537533227654E9, 2021-02-05 10:05:33.227
196.0, 0.0, 0.0, 41075.64453125, 87522.703125, -31702.57421875, -9989.0166015625, 0.0, 0.0, -0.06599999964237213, 0.9960000514984131, 0.08400000631809235, 192.0, 0.0, 0.0, 0.0, 0.0, 0.0, 0.0, 0.0, 0.0, 0.0, 1.612537533287905E9, 2021-02-05 10:05:33.287
197.0, 0.0, 0.0, 41055.125, 87509.78125, -31917.775390625, -9560.310546875, 0.0, 0.0, -0.06599999964237213, 0.9960000514984131, 0.08400000631809235, 192.0, 0.0, 0.0, 0.0, 0.0, 0.0, 0.0, 0.0, 0.0, 0.0, 1.612537533287907E9, 2021-02-05 10:05:33.287
198.0, 0.0, 0.0, 41394.87109375, 87873.3359375, -32091.494140625, -10434.5087890625, 0.0, 0.0, -0.06599999964237213, 0.9960000514984131, 0.08400000631809235, 192.0, 0.0, 0.0, 0.0, 0.0, 0.0, 0.0, 0.0, 0.0, 0.0, 1.612537533287909E9, 2021-02-05 10:05:33.287
199.0, 0.0, 0.0, 41435.4609375, 87913.1171875, -31897.591796875, -10865.2724609375, 0.0, 0.0, -0.06599999964237213, 0.9960000514984131, 0.08400000631809235, 192.0, 0.0, 0.0, 0.0, 0.0, 0.0, 0.0, 0.0, 0.0, 0.0, 1.61253753328791E9, 2021-02-05 10:05:33.287
200.0, 0.0, 0.0, 41131.1875, 87583.0078125, -31693.923828125, -10154.3525390625, 0.0, 0.0, -0.06599999964237213, 0.9960000514984131, 0.08400000631809235, 192.0, 0.0, 0.0, 0.0, 0.0, 0.0, 0.0, 0.0, 0.0, 0.0, 1.612537533287911E9, 2021-02-05 10:05:33.287
201.0, 0.0, 0.0, 41032.86328125, 87485.1484375, -31845.69140625, -9525.44140625, 0.0, 0.0, -0.06599999964237213, 0.9960000514984131, 0.08400000631809235, 192.0, 0.0, 0.0, 0.0, 0.0, 0.0, 0.0, 0.0, 0.0, 0.0, 1.612537533287912E9, 2021-02-05 10:05:33.287
202.0, 0.0, 0.0, 41333.13671875, 87815.53125, -32085.458984375, -10257.7294921875, 0.0, 0.0, -0.07200000435113907, 0.9960000514984131, 0.0820000022649765, 192.0, 253.0, 192.0, 31.0, 32.0, 2.0, 144.0, 0.0, 0.0, 0.0, 1.612537533287913E9, 2021-02-05 10:05:33.287
203.0, 0.0, 0.0, 41468.87890625, 87955.4296875, -31940.619140625, -10886.9306640625, 0.0, 0.0, -0.07200000435113907, 0.9960000514984131, 0.0820000022649765, 192.0, 0.0, 0.0, 0.0, 0.0, 0.0, 0.0, 0.0, 0.0, 0.0, 1.612537533287914E9, 2021-02-05 10:05:33.287
204.0, 0.0, 0.0, 41189.76953125, 87652.046875, -31699.712890625, -10326.662109375, 0.0, 0.0, -0.07200000435113907, 0.9960000514984131, 0.0820000022649765, 192.0, 0.0, 0.0, 0.0, 0.0, 0.0, 0.0, 0.0, 0.0, 0.0, 1.612537533287915E9, 2021-02-05 10:05:33.287
205.0, 0.0, 0.0, 40990.55078125, 87446.2109375, -31810.890625, -9529.912109375, 0.0, 0.0, -0.07200000435113907, 0.9960000514984131, 0.0820000022649765, 192.0, 0.0, 0.0, 0.0, 0.0, 0.0, 0.0, 0.0, 0.0, 0.0, 1.612537533287916E9, 2021-02-05 10:05:33.287
206.0, 0.0, 0.0, 41280.7890625, 87757.6171875, -32070.70703125, -10069.125, 0.0, 0.0, -0.07200000435113907, 0.9960000514984131, 0.0820000022649765, 192.0, 0.0, 0.0, 0.0, 0.0, 0.0, 0.0, 0.0, 0.0, 0.0, 1.612537533287917E9, 2021-02-05 10:05:33.287
207.0, 0.0, 0.0, 41489.0625, 87979.1640625, -31975.15234375, -10857.8515625, 0.0, 0.0, -0.07200000435113907, 0.9960000514984131, 0.0820000022649765, 192.0, 0.0, 0.0, 0.0, 0.0, 0.0, 0.0, 0.0, 0.0, 0.0, 1.612537533287918E9, 2021-02-05 10:05:33.287
208.0, 0.0, 0.0, 41253.5859375, 87725.9453125, -31716.767578125, -10479.7939453125, 0.0, 0.0, -0.07200000435113907, 0.9960000514984131, 0.0820000022649765, 192.0, 0.0, 0.0, 0.0, 0.0, 0.0, 0.0, 0.0, 0.0, 0.0, 1.612537533287919E9, 2021-02-05 10:05:33.287
209.0, 0.0, 0.0, 41023.2734375, 87478.15625, -31735.69921875, -9605.2822265625, 0.0, 0.0, -0.07200000435113907, 0.9960000514984131, 0.0820000022649765, 192.0, 0.0, 0.0, 0.0, 0.0, 0.0, 0.0, 0.0, 0.0, 0.0, 1.61253753328792E9, 2021-02-05 10:05:33.287
210.0, 0.0, 0.0, 41234.20703125, 87702.6328125, -32013.083984375, -9893.865234375, 0.0, 0.0, -0.07200000435113907, 0.9960000514984131, 0.0820000022649765, 192.0, 0.0, 0.0, 0.0, 0.0, 0.0, 0.0, 0.0, 0.0, 0.0, 1.612537533287926E9, 2021-02-05 10:05:33.287
211.0, 0.0, 0.0, 41492.2109375, 87978.09375, -32006.892578125, -10789.09765625, 0.0, 0.0, -0.07200000435113907, 0.9960000514984131, 0.0820000022649765, 192.0, 0.0, 0.0, 0.0, 0.0, 0.0, 0.0, 0.0, 0.0, 0.0, 1.612537533348235E9, 2021-02-05 10:05:33.348
212.0, 0.0, 0.0, 41332.46484375, 87804.5546875, -31736.146484375, -10620.0283203125, 0.0, 0.0, -0.07000000029802322, 0.9980000257492065, 0.0820000022649765, 192.0, 253.0, 208.0, 31.0, 48.0, 2.0, 144.0, 0.0, 0.0, 0.0, 1.612537533348239E9, 2021-02-05 10:05:33.348
213.0, 0.0, 0.0, 41033.2421875, 87485.9765625, -31707.3125, -9698.623046875, 0.0, 0.0, -0.07000000029802322, 0.9980000257492065, 0.0820000022649765, 192.0, 0.0, 0.0, 0.0, 0.0, 0.0, 0.0, 0.0, 0.0, 0.0, 1.61253753334824E9, 2021-02-05 10:05:33.348
214.0, 0.0, 0.0, 41175.84765625, 87636.8984375, -31986.484375, -9722.650390625, 0.0, 0.0, -0.07000000029802322, 0.9980000257492065, 0.0820000022649765, 192.0, 0.0, 0.0, 0.0, 0.0, 0.0, 0.0, 0.0, 0.0, 0.0, 1.612537533348241E9, 2021-02-05 10:05:33.348
215.0, 0.0, 0.0, 41489.375, 87967.296875, -32042.275390625, -10675.2822265625, 0.0, 0.0, -0.07000000029802322, 0.9980000257492065, 0.0820000022649765, 192.0, 0.0, 0.0, 0.0, 0.0, 0.0, 0.0, 0.0, 0.0, 0.0, 1.612537533348242E9, 2021-02-05 10:05:33.348
216.0, 0.0, 0.0, 41389.86328125, 87860.8359375, -31787.5546875, -10717.236328125, 0.0, 0.0, -0.07000000029802322, 0.9980000257492065, 0.0820000022649765, 192.0, 0.0, 0.0, 0.0, 0.0, 0.0, 0.0, 0.0, 0.0, 0.0, 1.612537533348243E9, 2021-02-05 10:05:33.348
217.0, 0.0, 0.0, 41062.8125, 87512.0625, -31691.509765625, -9825.2001953125, 0.0, 0.0, -0.07000000029802322, 0.9980000257492065, 0.0820000022649765, 192.0, 0.0, 0.0, 0.0, 0.0, 0.0, 0.0, 0.0, 0.0, 0.0, 1.612537533348244E9, 2021-02-05 10:05:33.348
218.0, 0.0, 0.0, 41122.3359375, 87586.15625, -31934.271484375, -9595.4697265625, 0.0, 0.0, -0.07000000029802322, 0.9980000257492065, 0.0820000022649765, 192.0, 0.0, 0.0, 0.0, 0.0, 0.0, 0.0, 0.0, 0.0, 0.0, 1.612537533348245E9, 2021-02-05 10:05:33.348
219.0, 0.0, 0.0, 41450.90625, 87944.5703125, -32060.693359375, -10533.3935546875, 0.0, 0.0, -0.07000000029802322, 0.9980000257492065, 0.0820000022649765, 192.0, 0.0, 0.0, 0.0, 0.0, 0.0, 0.0, 0.0, 0.0, 0.0, 1.612537533348246E9, 2021-02-05 10:05:33.348
220.0, 0.0, 0.0, 41436.82421875, 87917.4296875, -31824.568359375, -10803.15625, 0.0, 0.0, -0.07000000029802322, 0.9980000257492065, 0.0820000022649765, 192.0, 0.0, 0.0, 0.0, 0.0, 0.0, 0.0, 0.0, 0.0, 0.0, 1.612537533348247E9, 2021-02-05 10:05:33.348
221.0, 0.0, 0.0, 41104.43359375, 87567.2890625, -31676.779296875, -9992.4365234375, 0.0, 0.0, -0.07000000029802322, 0.9980000257492065, 0.0820000022649765, 192.0, 0.0, 0.0, 0.0, 0.0, 0.0, 0.0, 0.0, 0.0, 0.0, 1.612537533348248E9, 2021-02-05 10:05:33.348
222.0, 0.0, 0.0, 41060.46484375, 87526.8828125, -31884.986328125, -9516.0537109375, 0.0, 0.0, -0.07200000435113907, 0.9860000610351562, 0.0820000022649765, 192.0, 253.0, 192.0, 30.0, 208.0, 2.0, 144.0, 0.0, 0.0, 0.0, 1.612537533348249E9, 2021-02-05 10:05:33.348
223.0, 0.0, 0.0, 41385.6171875, 87873.2421875, -32087.24609375, -10361.8662109375, 0.0, 0.0, -0.07200000435113907, 0.9860000610351562, 0.0820000022649765, 192.0, 0.0, 0.0, 0.0, 0.0, 0.0, 0.0, 0.0, 0.0, 0.0, 1.61253753334825E9, 2021-02-05 10:05:33.348
224.0, 0.0, 0.0, 41467.53515625, 87955.875, -31895.087890625, -10839.8359375, 0.0, 0.0, -0.07200000435113907, 0.9860000610351562, 0.0820000022649765, 192.0, 0.0, 0.0, 0.0, 0.0, 0.0, 0.0, 0.0, 0.0, 0.0, 1.612537533348251E9, 2021-02-05 10:05:33.348
225.0, 0.0, 0.0, 41157.7421875, 87620.2890625, -31694.884765625, -10149.033203125, 0.0, 0.0, -0.07200000435113907, 0.9860000610351562, 0.0820000022649765, 192.0, 0.0, 0.0, 0.0, 0.0, 0.0, 0.0, 0.0, 0.0, 0.0, 1.612537533348252E9, 2021-02-05 10:05:33.348
226.0, 0.0, 0.0, 41060.62109375, 87514.203125, -31828.033203125, -9490.8857421875, 0.0, 0.0, -0.07200000435113907, 0.9860000610351562, 0.0820000022649765, 192.0, 0.0, 0.0, 0.0, 0.0, 0.0, 0.0, 0.0, 0.0, 0.0, 1.612537533408507E9, 2021-02-05 10:05:33.408
227.0, 0.0, 0.0, 41358.3046875, 87831.734375, -32066.01171875, -10183.56640625, 0.0, 0.0, -0.07200000435113907, 0.9860000610351562, 0.0820000022649765, 192.0, 0.0, 0.0, 0.0, 0.0, 0.0, 0.0, 0.0, 0.0, 0.0, 1.61253753340851E9, 2021-02-05 10:05:33.408
228.0, 0.0, 0.0, 41487.62890625, 87969.9609375, -31948.6875, -10838.896484375, 0.0, 0.0, -0.07200000435113907, 0.9860000610351562, 0.0820000022649765, 192.0, 0.0, 0.0, 0.0, 0.0, 0.0, 0.0, 0.0, 0.0, 0.0, 1.612537533408511E9, 2021-02-05 10:05:33.408
229.0, 0.0, 0.0, 41209.59765625, 87666.2890625, -31714.978515625, -10312.8935546875, 0.0, 0.0, -0.07200000435113907, 0.9860000610351562, 0.0820000022649765, 192.0, 0.0, 0.0, 0.0, 0.0, 0.0, 0.0, 0.0, 0.0, 0.0, 1.612537533408512E9, 2021-02-05 10:05:33.408
230.0, 0.0, 0.0, 41028.61328125, 87473.75, -31793.65625, -9511.091796875, 0.0, 0.0, -0.07200000435113907, 0.9860000610351562, 0.0820000022649765, 192.0, 0.0, 0.0, 0.0, 0.0, 0.0, 0.0, 0.0, 0.0, 0.0, 1.612537533408513E9, 2021-02-05 10:05:33.408
231.0, 0.0, 0.0, 41297.796875, 87759.515625, -32055.841796875, -10004.9755859375, 0.0, 0.0, -0.07200000435113907, 0.9860000610351562, 0.0820000022649765, 192.0, 0.0, 0.0, 0.0, 0.0, 0.0, 0.0, 0.0, 0.0, 0.0, 1.612537533408515E9, 2021-02-05 10:05:33.408
232.0, 0.0, 0.0, 41506.8515625, 87986.65625, -31986.73046875, -10817.595703125, 0.0, 0.0, -0.06400000303983688, 0.9800000190734863, 0.0820000022649765, 192.0, 254.0, 0.0, 30.0, 160.0, 2.0, 144.0, 0.0, 0.0, 0.0, 1.612537533408516E9, 2021-02-05 10:05:33.408
233.0, 0.0, 0.0, 41282.53125, 87741.234375, -31726.421875, -10482.6767578125, 0.0, 0.0, -0.06400000303983688, 0.9800000190734863, 0.0820000022649765, 192.0, 0.0, 0.0, 0.0, 0.0, 0.0, 0.0, 0.0, 0.0, 0.0, 1.612537533408523E9, 2021-02-05 10:05:33.408
234.0, 0.0, 0.0, 41033.8671875, 87475.2890625, -31739.564453125, -9595.111328125, 0.0, 0.0, -0.06400000303983688, 0.9800000190734863, 0.0820000022649765, 192.0, 0.0, 0.0, 0.0, 0.0, 0.0, 0.0, 0.0, 0.0, 0.0, 1.612537533408524E9, 2021-02-05 10:05:33.408
235.0, 0.0, 0.0, 41233.9375, 87694.9453125, -32015.564453125, -9845.294921875, 0.0, 0.0, -0.06400000303983688, 0.9800000190734863, 0.0820000022649765, 192.0, 0.0, 0.0, 0.0, 0.0, 0.0, 0.0, 0.0, 0.0, 0.0, 1.612537533408525E9, 2021-02-05 10:05:33.408
236.0, 0.0, 0.0, 41497.98046875, 87970.5625, -32023.8125, -10759.302734375, 0.0, 0.0, -0.06400000303983688, 0.9800000190734863, 0.0820000022649765, 192.0, 0.0, 0.0, 0.0, 0.0, 0.0, 0.0, 0.0, 0.0, 0.0, 1.612537533408526E9, 2021-02-05 10:05:33.408
237.0, 0.0, 0.0, 41344.33203125, 87796.3515625, -31763.1015625, -10628.34375, 0.0, 0.0, -0.06400000303983688, 0.9800000190734863, 0.0820000022649765, 192.0, 0.0, 0.0, 0.0, 0.0, 0.0, 0.0, 0.0, 0.0, 0.0, 1.612537533408527E9, 2021-02-05 10:05:33.408
238.0, 0.0, 0.0, 41044.6171875, 87485.5078125, -31708.67578125, -9715.7666015625, 0.0, 0.0, -0.06400000303983688, 0.9800000190734863, 0.0820000022649765, 192.0, 0.0, 0.0, 0.0, 0.0, 0.0, 0.0, 0.0, 0.0, 0.0, 1.612537533408528E9, 2021-02-05 10:05:33.408
239.0, 0.0, 0.0, 41161.62890625, 87611.0546875, -31981.3671875, -9693.236328125, 0.0, 0.0, -0.06400000303983688, 0.9800000190734863, 0.0820000022649765, 192.0, 0.0, 0.0, 0.0, 0.0, 0.0, 0.0, 0.0, 0.0, 0.0, 1.612537533408529E9, 2021-02-05 10:05:33.408
240.0, 0.0, 0.0, 41478.48828125, 87954.3125, -32054.390625, -10650.896484375, 0.0, 0.0, -0.06400000303983688, 0.9800000190734863, 0.0820000022649765, 192.0, 0.0, 0.0, 0.0, 0.0, 0.0, 0.0, 0.0, 0.0, 0.0, 1.61253753340853E9, 2021-02-05 10:05:33.408
241.0, 0.0, 0.0, 41402.9375, 87871.7265625, -31800.630859375, -10740.0126953125, 0.0, 0.0, -0.06400000303983688, 0.9800000190734863, 0.0820000022649765, 192.0, 0.0, 0.0, 0.0, 0.0, 0.0, 0.0, 0.0, 0.0, 0.0, 1.612537533467883E9, 2021-02-05 10:05:33.467
242.0, 0.0, 0.0, 41079.3984375, 87528.2421875, -31688.537109375, -9865.9033203125, 0.0, 0.0, -0.06400000303983688, 0.9800000190734863, 0.0820000022649765, 192.0, 0.0, 0.0, 0.0, 0.0, 0.0, 0.0, 0.0, 0.0, 0.0, 1.612537533467886E9, 2021-02-05 10:05:33.467
243.0, 0.0, 0.0, 41107.5625, 87558.640625, -31937.37890625, -9579.4658203125, 0.0, 0.0, -0.06800000369548798, 0.9820000529289246, 0.08000000566244125, 192.0, 253.0, 224.0, 30.0, 176.0, 2.0, 128.0, 0.0, 0.0, 0.0, 1.612537533467887E9, 2021-02-05 10:05:33.467
244.0, 0.0, 0.0, 41436.0859375, 87905.921875, -32085.5703125, -10502.5478515625, 0.0, 0.0, -0.06800000369548798, 0.9820000529289246, 0.08000000566244125, 192.0, 0.0, 0.0, 0.0, 0.0, 0.0, 0.0, 0.0, 0.0, 0.0, 1.612537533467888E9, 2021-02-05 10:05:33.467
245.0, 0.0, 0.0, 41444.671875, 87909.3203125, -31859.638671875, -10815.4951171875, 0.0, 0.0, -0.06800000369548798, 0.9820000529289246, 0.08000000566244125, 192.0, 0.0, 0.0, 0.0, 0.0, 0.0, 0.0, 0.0, 0.0, 0.0, 1.612537533467889E9, 2021-02-05 10:05:33.467
246.0, 0.0, 0.0, 41119.5859375, 87561.1875, -31684.400390625, -10027.595703125, 0.0, 0.0, -0.06800000369548798, 0.9820000529289246, 0.08000000566244125, 192.0, 0.0, 0.0, 0.0, 0.0, 0.0, 0.0, 0.0, 0.0, 0.0, 1.61253753346789E9, 2021-02-05 10:05:33.467
247.0, 0.0, 0.0, 41073.20703125, 87521.8046875, -31873.51953125, -9520.8818359375, 0.0, 0.0, -0.06800000369548798, 0.9820000529289246, 0.08000000566244125, 192.0, 0.0, 0.0, 0.0, 0.0, 0.0, 0.0, 0.0, 0.0, 0.0, 1.612537533467891E9, 2021-02-05 10:05:33.467
248.0, 0.0, 0.0, 41396.1875, 87864.234375, -32075.265625, -10346.0859375, 0.0, 0.0, -0.06800000369548798, 0.9820000529289246, 0.08000000566244125, 192.0, 0.0, 0.0, 0.0, 0.0, 0.0, 0.0, 0.0, 0.0, 0.0, 1.612537533467892E9, 2021-02-05 10:05:33.467
249.0, 0.0, 0.0, 41472.9453125, 87949.125, -31899.0234375, -10860.466796875, 0.0, 0.0, -0.06800000369548798, 0.9820000529289246, 0.08000000566244125, 192.0, 0.0, 0.0, 0.0, 0.0, 0.0, 0.0, 0.0, 0.0, 0.0, 1.612537533467893E9, 2021-02-05 10:05:33.467
250.0, 0.0, 0.0, 41165.8984375, 87621.046875, -31681.919921875, -10206.0966796875, 0.0, 0.0, -0.06800000369548798, 0.9820000529289246, 0.08000000566244125, 192.0, 0.0, 0.0, 0.0, 0.0, 0.0, 0.0, 0.0, 0.0, 0.0, 1.612537533467894E9, 2021-02-05 10:05:33.467
251.0, 0.0, 0.0, 41027.296875, 87473.234375, -31824.033203125, -9504.9892578125, 0.0, 0.0, -0.06800000369548798, 0.9820000529289246, 0.08000000566244125, 192.0, 0.0, 0.0, 0.0, 0.0, 0.0, 0.0, 0.0, 0.0, 0.0, 1.612537533467895E9, 2021-02-05 10:05:33.467
252.0, 0.0, 0.0, 41336.46484375, 87805.609375, -32067.46484375, -10173.75390625, 0.0, 0.0, -0.06800000369548798, 0.9820000529289246, 0.08000000566244125, 192.0, 0.0, 0.0, 0.0, 0.0, 0.0, 0.0, 0.0, 0.0, 0.0, 1.612537533467896E9, 2021-02-05 10:05:33.467
253.0, 0.0, 0.0, 41484.859375, 87963.703125, -31949.8515625, -10867.619140625, 0.0, 0.0, -0.07000000029802322, 0.9860000610351562, 0.0820000022649765, 192.0, 253.0, 208.0, 30.0, 208.0, 2.0, 144.0, 0.0, 0.0, 0.0, 1.612537533467897E9, 2021-02-05 10:05:33.467
254.0, 0.0, 0.0, 41221.80078125, 87680.1015625, -31705.724609375, -10374.78515625, 0.0, 0.0, -0.07000000029802322, 0.9860000610351562, 0.0820000022649765, 192.0, 0.0, 0.0, 0.0, 0.0, 0.0, 0.0, 0.0, 0.0, 0.0, 1.612537533467899E9, 2021-02-05 10:05:33.467
255.0, 0.0, 0.0, 41008.23046875, 87454.171875, -31781.787109375, -9537.3994140625, 0.0, 0.0, -0.07000000029802322, 0.9860000610351562, 0.0820000022649765, 192.0, 0.0, 0.0, 0.0, 0.0, 0.0, 0.0, 0.0, 0.0, 0.0, 1.6125375334679E9, 2021-02-05 10:05:33.467
0.0, 0.0, 0.0, 41258.92578125, 87723.8671875, -32057.80859375, -9984.92578125, 0.0, 0.0, -0.07000000029802322, 0.9860000610351562, 0.0820000022649765, 192.0, 0.0, 0.0, 0.0, 0.0, 0.0, 0.0, 0.0, 0.0, 0.0, 1.612537533527609E9, 2021-02-05 10:05:33.527
1.0, 0.0, 0.0, 41476.5, 87954.9140625, -32005.283203125, -10820.255859375, 0.0, 0.0, -0.07000000029802322, 0.9860000610351562, 0.0820000022649765, 192.0, 0.0, 0.0, 0.0, 0.0, 0.0, 0.0, 0.0, 0.0, 0.0, 1.612537533527613E9, 2021-02-05 10:05:33.527
2.0, 0.0, 0.0, 41285.125, 87746.7578125, -31728.345703125, -10530.599609375, 0.0, 0.0, -0.07000000029802322, 0.9860000610351562, 0.0820000022649765, 192.0, 0.0, 0.0, 0.0, 0.0, 0.0, 0.0, 0.0, 0.0, 0.0, 1.612537533527615E9, 2021-02-05 10:05:33.527
3.0, 0.0, 0.0, 41018.33203125, 87464.1796875, -31730.646484375, -9626.60546875, 0.0, 0.0, -0.07000000029802322, 0.9860000610351562, 0.0820000022649765, 192.0, 0.0, 0.0, 0.0, 0.0, 0.0, 0.0, 0.0, 0.0, 0.0, 1.612537533527616E9, 2021-02-05 10:05:33.527
4.0, 0.0, 0.0, 41195.11328125, 87651.6484375, -32019.4765625, -9816.013671875, 0.0, 0.0, -0.07000000029802322, 0.9860000610351562, 0.0820000022649765, 192.0, 0.0, 0.0, 0.0, 0.0, 0.0, 0.0, 0.0, 0.0, 0.0, 1.612537533527618E9, 2021-02-05 10:05:33.527
5.0, 0.0, 0.0, 41492.50390625, 87962.9609375, -32035.45703125, -10756.1064453125, 0.0, 0.0, -0.07000000029802322, 0.9860000610351562, 0.0820000022649765, 192.0, 0.0, 0.0, 0.0, 0.0, 0.0, 0.0, 0.0, 0.0, 0.0, 1.612537533527619E9, 2021-02-05 10:05:33.527
6.0, 0.0, 0.0, 41347.44140625, 87803.2578125, -31770.052734375, -10668.1748046875, 0.0, 0.0, -0.07000000029802322, 0.9860000610351562, 0.0820000022649765, 192.0, 0.0, 0.0, 0.0, 0.0, 0.0, 0.0, 0.0, 0.0, 0.0, 1.612537533527621E9, 2021-02-05 10:05:33.527
7.0, 0.0, 0.0, 41037.48828125, 87476.8125, -31714.576171875, -9752.8701171875, 0.0, 0.0, -0.07600000500679016, 0.9920000433921814, 0.0820000022649765, 192.0, 253.0, 160.0, 31.0, 0.0, 2.0, 144.0, 0.0, 0.0, 0.0, 1.612537533527622E9, 2021-02-05 10:05:33.527
8.0, 0.0, 0.0, 41144.328125, 87596.6171875, -31979.064453125, -9682.3056640625, 0.0, 0.0, -0.07600000500679016, 0.9920000433921814, 0.0820000022649765, 192.0, 0.0, 0.0, 0.0, 0.0, 0.0, 0.0, 0.0, 0.0, 0.0, 1.612537533527624E9, 2021-02-05 10:05:33.527
9.0, 0.0, 0.0, 41456.09375, 87931.78125, -32067.845703125, -10637.1728515625, 0.0, 0.0, -0.07600000500679016, 0.9920000433921814, 0.0820000022649765, 192.0, 0.0, 0.0, 0.0, 0.0, 0.0, 0.0, 0.0, 0.0, 0.0, 1.612537533527625E9, 2021-02-05 10:05:33.527
10.0, 0.0, 0.0, 41387.47265625, 87860.8359375, -31820.0546875, -10767.4833984375, 0.0, 0.0, -0.07600000500679016, 0.9920000433921814, 0.0820000022649765, 192.0, 0.0, 0.0, 0.0, 0.0, 0.0, 0.0, 0.0, 0.0, 0.0, 1.612537533527626E9, 2021-02-05 10:05:33.527
11.0, 0.0, 0.0, 41077.23046875, 87526.078125, -31687.798828125, -9904.19140625, 0.0, 0.0, -0.07600000500679016, 0.9920000433921814, 0.0820000022649765, 192.0, 0.0, 0.0, 0.0, 0.0, 0.0, 0.0, 0.0, 0.0, 0.0, 1.612537533527628E9, 2021-02-05 10:05:33.527
12.0, 0.0, 0.0, 41098.21875, 87547.265625, -31920.8828125, -9579.2197265625, 0.0, 0.0, -0.07600000500679016, 0.9920000433921814, 0.0820000022649765, 192.0, 0.0, 0.0, 0.0, 0.0, 0.0, 0.0, 0.0, 0.0, 0.0, 1.612537533527629E9, 2021-02-05 10:05:33.527
13.0, 0.0, 0.0, 41431.16796875, 87903.53125, -32080.67578125, -10496.021484375, 0.0, 0.0, -0.07600000500679016, 0.9920000433921814, 0.0820000022649765, 192.0, 0.0, 0.0, 0.0, 0.0, 0.0, 0.0, 0.0, 0.0, 0.0, 1.612537533527631E9, 2021-02-05 10:05:33.527
14.0, 0.0, 0.0, 41441.31640625, 87910.390625, -31873.609375, -10841.087890625, 0.0, 0.0, -0.07600000500679016, 0.9920000433921814, 0.0820000022649765, 192.0, 0.0, 0.0, 0.0, 0.0, 0.0, 0.0, 0.0, 0.0, 0.0, 1.612537533527632E9, 2021-02-05 10:05:33.527
15.0, 0.0, 0.0, 41127.2734375, 87573.4375, -31683.619140625, -10070.9580078125, 0.0, 0.0, -0.07600000500679016, 0.9920000433921814, 0.0820000022649765, 192.0, 0.0, 0.0, 0.0, 0.0, 0.0, 0.0, 0.0, 0.0, 0.0, 1.612537533587912E9, 2021-02-05 10:05:33.587
16.0, 0.0, 0.0, 41046.921875, 87496.90625, -31863.953125, -9513.013671875, 0.0, 0.0, -0.07600000500679016, 0.9920000433921814, 0.0820000022649765, 192.0, 0.0, 0.0, 0.0, 0.0, 0.0, 0.0, 0.0, 0.0, 0.0, 1.612537533587915E9, 2021-02-05 10:05:33.587
17.0, 0.0, 0.0, 41379.6953125, 87852.296875, -32070.59375, -10313.8095703125, 0.0, 0.0, -0.07400000095367432, 0.9880000352859497, 0.0820000022649765, 192.0, 253.0, 176.0, 30.0, 224.0, 2.0, 144.0, 0.0, 0.0, 0.0, 1.612537533587916E9, 2021-02-05 10:05:33.587
18.0, 0.0, 0.0, 41467.71484375, 87945.1953125, -31913.619140625, -10859.7958984375, 0.0, 0.0, -0.07400000095367432, 0.9880000352859497, 0.0820000022649765, 192.0, 0.0, 0.0, 0.0, 0.0, 0.0, 0.0, 0.0, 0.0, 0.0, 1.612537533587917E9, 2021-02-05 10:05:33.587
19.0, 0.0, 0.0, 41184.5625, 87634.8203125, -31687.0390625, -10235.466796875, 0.0, 0.0, -0.07400000095367432, 0.9880000352859497, 0.0820000022649765, 192.0, 0.0, 0.0, 0.0, 0.0, 0.0, 0.0, 0.0, 0.0, 0.0, 1.612537533587918E9, 2021-02-05 10:05:33.587
20.0, 0.0, 0.0, 41014.30859375, 87464.9453125, -31823.31640625, -9496.5625, 0.0, 0.0, -0.07400000095367432, 0.9880000352859497, 0.0820000022649765, 192.0, 0.0, 0.0, 0.0, 0.0, 0.0, 0.0, 0.0, 0.0, 0.0, 1.612537533587919E9, 2021-02-05 10:05:33.587
21.0, 0.0, 0.0, 41313.12890625, 87786.3203125, -32084.140625, -10127.0166015625, 0.0, 0.0, -0.07400000095367432, 0.9880000352859497, 0.0820000022649765, 192.0, 0.0, 0.0, 0.0, 0.0, 0.0, 0.0, 0.0, 0.0, 0.0, 1.61253753358792E9, 2021-02-05 10:05:33.587
22.0, 0.0, 0.0, 41481.70703125, 87964.2109375, -31977.72265625, -10854.185546875, 0.0, 0.0, -0.07400000095367432, 0.9880000352859497, 0.0820000022649765, 192.0, 0.0, 0.0, 0.0, 0.0, 0.0, 0.0, 0.0, 0.0, 0.0, 1.612537533587921E9, 2021-02-05 10:05:33.587
23.0, 0.0, 0.0, 41228.21484375, 87689.3125, -31725.796875, -10396.33203125, 0.0, 0.0, -0.07400000095367432, 0.9880000352859497, 0.0820000022649765, 192.0, 0.0, 0.0, 0.0, 0.0, 0.0, 0.0, 0.0, 0.0, 0.0, 1.612537533587922E9, 2021-02-05 10:05:33.587
24.0, 0.0, 0.0, 41026.8046875, 87473.484375, -31779.060546875, -9551.2802734375, 0.0, 0.0, -0.07400000095367432, 0.9880000352859497, 0.0820000022649765, 192.0, 0.0, 0.0, 0.0, 0.0, 0.0, 0.0, 0.0, 0.0, 0.0, 1.612537533587928E9, 2021-02-05 10:05:33.587
25.0, 0.0, 0.0, 41280.96484375, 87747.578125, -32045.337890625, -9956.830078125, 0.0, 0.0, -0.07400000095367432, 0.9880000352859497, 0.0820000022649765, 192.0, 0.0, 0.0, 0.0, 0.0, 0.0, 0.0, 0.0, 0.0, 0.0, 1.612537533587929E9, 2021-02-05 10:05:33.587
26.0, 0.0, 0.0, 41519.28125, 88003.953125, -31997.416015625, -10816.4560546875, 0.0, 0.0, -0.07400000095367432, 0.9880000352859497, 0.0820000022649765, 192.0, 0.0, 0.0, 0.0, 0.0, 0.0, 0.0, 0.0, 0.0, 0.0, 1.61253753358793E9, 2021-02-05 10:05:33.587
27.0, 0.0, 0.0, 41311.8125, 87776.484375, -31740.056640625, -10551.7890625, 0.0, 0.0, -0.0820000022649765, 0.9800000190734863, 0.0820000022649765, 192.0, 253.0, 112.0, 30.0, 160.0, 2.0, 144.0, 0.0, 0.0, 0.0, 1.612537533587931E9, 2021-02-05 10:05:33.587
28.0, 0.0, 0.0, 41034.15625, 87478.5078125, -31733.865234375, -9639.546875, 0.0, 0.0, -0.0820000022649765, 0.9800000190734863, 0.0820000022649765, 192.0, 0.0, 0.0, 0.0, 0.0, 0.0, 0.0, 0.0, 0.0, 0.0, 1.612537533587932E9, 2021-02-05 10:05:33.587
29.0, 0.0, 0.0, 41189.92578125, 87654.6640625, -32022.44921875, -9774.3505859375, 0.0, 0.0, -0.0820000022649765, 0.9800000190734863, 0.0820000022649765, 192.0, 0.0, 0.0, 0.0, 0.0, 0.0, 0.0, 0.0, 0.0, 0.0, 1.612537533587933E9, 2021-02-05 10:05:33.587
30.0, 0.0, 0.0, 41477.125, 87966.71875, -32051.349609375, -10710.53125, 0.0, 0.0, -0.0820000022649765, 0.9800000190734863, 0.0820000022649765, 192.0, 0.0, 0.0, 0.0, 0.0, 0.0, 0.0, 0.0, 0.0, 0.0, 1.612537533648282E9, 2021-02-05 10:05:33.648
31.0, 0.0, 0.0, 41375.6015625, 87852.0546875, -31772.779296875, -10677.0703125, 0.0, 0.0, -0.0820000022649765, 0.9800000190734863, 0.0820000022649765, 192.0, 0.0, 0.0, 0.0, 0.0, 0.0, 0.0, 0.0, 0.0, 0.0, 1.612537533648288E9, 2021-02-05 10:05:33.648
32.0, 0.0, 0.0, 41074.94921875, 87524.6484375, -31689.5859375, -9777.79296875, 0.0, 0.0, -0.0820000022649765, 0.9800000190734863, 0.0820000022649765, 192.0, 0.0, 0.0, 0.0, 0.0, 0.0, 0.0, 0.0, 0.0, 0.0, 1.61253753364829E9, 2021-02-05 10:05:33.648
33.0, 0.0, 0.0, 41149.42578125, 87609.3828125, -31960.84765625, -9645.42578125, 0.0, 0.0, -0.0820000022649765, 0.9800000190734863, 0.0820000022649765, 192.0, 0.0, 0.0, 0.0, 0.0, 0.0, 0.0, 0.0, 0.0, 0.0, 1.612537533648293E9, 2021-02-05 10:05:33.648
34.0, 0.0, 0.0, 41465.12109375, 87951.6328125, -32066.572265625, -10593.072265625, 0.0, 0.0, -0.0820000022649765, 0.9800000190734863, 0.0820000022649765, 192.0, 0.0, 0.0, 0.0, 0.0, 0.0, 0.0, 0.0, 0.0, 0.0, 1.612537533648295E9, 2021-02-05 10:05:33.648
35.0, 0.0, 0.0, 41423.97265625, 87903.5546875, -31818.98046875, -10769.1591796875, 0.0, 0.0, -0.0820000022649765, 0.9800000190734863, 0.0820000022649765, 192.0, 0.0, 0.0, 0.0, 0.0, 0.0, 0.0, 0.0, 0.0, 0.0, 1.612537533648297E9, 2021-02-05 10:05:33.648
36.0, 0.0, 0.0, 41092.875, 87547.421875, -31685.138671875, -9916.2841796875, 0.0, 0.0, -0.0820000022649765, 0.9800000190734863, 0.0820000022649765, 192.0, 0.0, 0.0, 0.0, 0.0, 0.0, 0.0, 0.0, 0.0, 0.0, 1.6125375336483E9, 2021-02-05 10:05:33.648
37.0, 0.0, 0.0, 41083.82421875, 87546.5078125, -31921.0625, -9538.919921875, 0.0, 0.0, -0.0820000022649765, 0.9800000190734863, 0.0820000022649765, 192.0, 0.0, 0.0, 0.0, 0.0, 0.0, 0.0, 0.0, 0.0, 0.0, 1.612537533648302E9, 2021-02-05 10:05:33.648
38.0, 0.0, 0.0, 41428.15234375, 87912.9375, -32089.1015625, -10441.0810546875, 0.0, 0.0, -0.07800000160932541, 0.9860000610351562, 0.0820000022649765, 192.0, 253.0, 144.0, 30.0, 208.0, 2.0, 144.0, 0.0, 0.0, 0.0, 1.612537533648304E9, 2021-02-05 10:05:33.648
39.0, 0.0, 0.0, 41477.1015625, 87956.28125, -31867.1484375, -10839.0087890625, 0.0, 0.0, -0.07800000160932541, 0.9860000610351562, 0.0820000022649765, 192.0, 0.0, 0.0, 0.0, 0.0, 0.0, 0.0, 0.0, 0.0, 0.0, 1.612537533648307E9, 2021-02-05 10:05:33.648
40.0, 0.0, 0.0, 41141.37890625, 87596.3515625, -31684.982421875, -10087.587890625, 0.0, 0.0, -0.07800000160932541, 0.9860000610351562, 0.0820000022649765, 192.0, 0.0, 0.0, 0.0, 0.0, 0.0, 0.0, 0.0, 0.0, 0.0, 1.612537533648309E9, 2021-02-05 10:05:33.648
41.0, 0.0, 0.0, 41062.74609375, 87521.25, -31855.951171875, -9492.583984375, 0.0, 0.0, -0.07800000160932541, 0.9860000610351562, 0.0820000022649765, 192.0, 0.0, 0.0, 0.0, 0.0, 0.0, 0.0, 0.0, 0.0, 0.0, 1.612537533648312E9, 2021-02-05 10:05:33.648
42.0, 0.0, 0.0, 41386.265625, 87867.03125, -32068.515625, -10270.3359375, 0.0, 0.0, -0.07800000160932541, 0.9860000610351562, 0.0820000022649765, 192.0, 0.0, 0.0, 0.0, 0.0, 0.0, 0.0, 0.0, 0.0, 0.0, 1.612537533648314E9, 2021-02-05 10:05:33.648
43.0, 0.0, 0.0, 41499.07421875, 87980.578125, -31909.21484375, -10860.734375, 0.0, 0.0, -0.07800000160932541, 0.9860000610351562, 0.0820000022649765, 192.0, 0.0, 0.0, 0.0, 0.0, 0.0, 0.0, 0.0, 0.0, 0.0, 1.612537533648316E9, 2021-02-05 10:05:33.648
44.0, 0.0, 0.0, 41219.07421875, 87678.8515625, -31673.873046875, -10269.330078125, 0.0, 0.0, -0.07800000160932541, 0.9860000610351562, 0.0820000022649765, 192.0, 0.0, 0.0, 0.0, 0.0, 0.0, 0.0, 0.0, 0.0, 0.0, 1.612537533648319E9, 2021-02-05 10:05:33.648
45.0, 0.0, 0.0, 41038.62890625, 87495.71875, -31794.328125, -9507.11328125, 0.0, 0.0, -0.07800000160932541, 0.9860000610351562, 0.0820000022649765, 192.0, 0.0, 0.0, 0.0, 0.0, 0.0, 0.0, 0.0, 0.0, 0.0, 1.612537533708403E9, 2021-02-05 10:05:33.708
46.0, 0.0, 0.0, 41330.33984375, 87807.390625, -32056.669921875, -10096.0146484375, 0.0, 0.0, -0.07800000160932541, 0.9860000610351562, 0.0820000022649765, 192.0, 0.0, 0.0, 0.0, 0.0, 0.0, 0.0, 0.0, 0.0, 0.0, 1.612537533708406E9, 2021-02-05 10:05:33.708
47.0, 0.0, 0.0, 41529.203125, 88018.3515625, -31955.103515625, -10858.8125, 0.0, 0.0, -0.07800000160932541, 0.9860000610351562, 0.0820000022649765, 192.0, 0.0, 0.0, 0.0, 0.0, 0.0, 0.0, 0.0, 0.0, 0.0, 1.612537533708413E9, 2021-02-05 10:05:33.708
48.0, 0.0, 0.0, 41266.34765625, 87733.546875, -31709.5703125, -10430.486328125, 0.0, 0.0, -0.07400000095367432, 0.9900000691413879, 0.0820000022649765, 192.0, 253.0, 176.0, 30.0, 240.0, 2.0, 144.0, 0.0, 0.0, 0.0, 1.612537533708414E9, 2021-02-05 10:05:33.708
49.0, 0.0, 0.0, 41043.41015625, 87496.3671875, -31755.61328125, -9563.6181640625, 0.0, 0.0, -0.07400000095367432, 0.9900000691413879, 0.0820000022649765, 192.0, 0.0, 0.0, 0.0, 0.0, 0.0, 0.0, 0.0, 0.0, 0.0, 1.612537533708416E9, 2021-02-05 10:05:33.708
50.0, 0.0, 0.0, 41266.81640625, 87742.4609375, -32031.92578125, -9915.748046875, 0.0, 0.0, -0.07400000095367432, 0.9900000691413879, 0.0820000022649765, 192.0, 0.0, 0.0, 0.0, 0.0, 0.0, 0.0, 0.0, 0.0, 0.0, 1.612537533708417E9, 2021-02-05 10:05:33.708
51.0, 0.0, 0.0, 41513.08984375, 88009.8359375, -32009.10546875, -10799.0439453125, 0.0, 0.0, -0.07400000095367432, 0.9900000691413879, 0.0820000022649765, 192.0, 0.0, 0.0, 0.0, 0.0, 0.0, 0.0, 0.0, 0.0, 0.0, 1.612537533708418E9, 2021-02-05 10:05:33.708
52.0, 0.0, 0.0, 41354.48046875, 87831.2890625, -31729.060546875, -10590.7255859375, 0.0, 0.0, -0.07400000095367432, 0.9900000691413879, 0.0820000022649765, 192.0, 0.0, 0.0, 0.0, 0.0, 0.0, 0.0, 0.0, 0.0, 0.0, 1.612537533708419E9, 2021-02-05 10:05:33.708
53.0, 0.0, 0.0, 41052.21875, 87512.796875, -31704.80859375, -9668.7158203125, 0.0, 0.0, -0.07400000095367432, 0.9900000691413879, 0.0820000022649765, 192.0, 0.0, 0.0, 0.0, 0.0, 0.0, 0.0, 0.0, 0.0, 0.0, 1.61253753370842E9, 2021-02-05 10:05:33.708
54.0, 0.0, 0.0, 41218.44921875, 87690.8984375, -31981.791015625, -9758.927734375, 0.0, 0.0, -0.07400000095367432, 0.9900000691413879, 0.0820000022649765, 192.0, 0.0, 0.0, 0.0, 0.0, 0.0, 0.0, 0.0, 0.0, 0.0, 1.612537533708421E9, 2021-02-05 10:05:33.708
55.0, 0.0, 0.0, 41519.99609375, 88006.8203125, -32020.125, -10709.435546875, 0.0, 0.0, -0.07400000095367432, 0.9900000691413879, 0.0820000022649765, 192.0, 0.0, 0.0, 0.0, 0.0, 0.0, 0.0, 0.0, 0.0, 0.0, 1.612537533708422E9, 2021-02-05 10:05:33.708
56.0, 0.0, 0.0, 41378.26171875, 87865.7578125, -31778.345703125, -10693.4990234375, 0.0, 0.0, -0.07400000095367432, 0.9900000691413879, 0.0820000022649765, 192.0, 0.0, 0.0, 0.0, 0.0, 0.0, 0.0, 0.0, 0.0, 0.0, 1.612537533708423E9, 2021-02-05 10:05:33.708
57.0, 0.0, 0.0, 41070.078125, 87540.15625, -31689.341796875, -9790.33203125, 0.0, 0.0, -0.07400000095367432, 0.9900000691413879, 0.0820000022649765, 192.0, 0.0, 0.0, 0.0, 0.0, 0.0, 0.0, 0.0, 0.0, 0.0, 1.612537533708424E9, 2021-02-05 10:05:33.708
58.0, 0.0, 0.0, 41139.2109375, 87618.078125, -31945.6484375, -9611.8984375, 0.0, 0.0, -0.07000000029802322, 0.9940000176429749, 0.0820000022649765, 192.0, 253.0, 208.0, 31.0, 16.0, 2.0, 144.0, 0.0, 0.0, 0.0, 1.612537533708425E9, 2021-02-05 10:05:33.708
59.0, 0.0, 0.0, 41480.56640625, 87979.1875, -32050.09765625, -10569.267578125, 0.0, 0.0, -0.07000000029802322, 0.9940000176429749, 0.0820000022649765, 192.0, 0.0, 0.0, 0.0, 0.0, 0.0, 0.0, 0.0, 0.0, 0.0, 1.612537533708426E9, 2021-02-05 10:05:33.708
60.0, 0.0, 0.0, 41445.16015625, 87936.7421875, -31808.20703125, -10790.6171875, 0.0, 0.0, -0.07000000029802322, 0.9940000176429749, 0.0820000022649765, 192.0, 0.0, 0.0, 0.0, 0.0, 0.0, 0.0, 0.0, 0.0, 0.0, 1.612537533767859E9, 2021-02-05 10:05:33.767
61.0, 0.0, 0.0, 41107.203125, 87576.6796875, -31669.603515625, -9949.4541015625, 0.0, 0.0, -0.07000000029802322, 0.9940000176429749, 0.0820000022649765, 192.0, 0.0, 0.0, 0.0, 0.0, 0.0, 0.0, 0.0, 0.0, 0.0, 1.612537533767862E9, 2021-02-05 10:05:33.767
62.0, 0.0, 0.0, 41099.87109375, 87573.3046875, -31891.736328125, -9528.81640625, 0.0, 0.0, -0.07000000029802322, 0.9940000176429749, 0.0820000022649765, 192.0, 0.0, 0.0, 0.0, 0.0, 0.0, 0.0, 0.0, 0.0, 0.0, 1.612537533767863E9, 2021-02-05 10:05:33.767
63.0, 0.0, 0.0, 41442.9921875, 87938.734375, -32060.021484375, -10415.3759765625, 0.0, 0.0, -0.07000000029802322, 0.9940000176429749, 0.0820000022649765, 192.0, 0.0, 0.0, 0.0, 0.0, 0.0, 0.0, 0.0, 0.0, 0.0, 1.612537533767865E9, 2021-02-05 10:05:33.767
64.0, 0.0, 0.0, 41477.4140625, 87975.2109375, -31871.41796875, -10842.25, 0.0, 0.0, -0.07000000029802322, 0.9940000176429749, 0.0820000022649765, 192.0, 0.0, 0.0, 0.0, 0.0, 0.0, 0.0, 0.0, 0.0, 0.0, 1.612537533767866E9, 2021-02-05 10:05:33.767
65.0, 0.0, 0.0, 41183.109375, 87658.7578125, -31668.15234375, -10126.1220703125, 0.0, 0.0, -0.07000000029802322, 0.9940000176429749, 0.0820000022649765, 192.0, 0.0, 0.0, 0.0, 0.0, 0.0, 0.0, 0.0, 0.0, 0.0, 1.612537533767867E9, 2021-02-05 10:05:33.767
66.0, 0.0, 0.0, 41085.56640625, 87559.46875, -31828.369140625, -9496.00390625, 0.0, 0.0, -0.07000000029802322, 0.9940000176429749, 0.0820000022649765, 192.0, 0.0, 0.0, 0.0, 0.0, 0.0, 0.0, 0.0, 0.0, 0.0, 1.612537533767868E9, 2021-02-05 10:05:33.767
67.0, 0.0, 0.0, 41388.07421875, 87883.7265625, -32068.44921875, -10230.7509765625, 0.0, 0.0, -0.07000000029802322, 0.9940000176429749, 0.0820000022649765, 192.0, 0.0, 0.0, 0.0, 0.0, 0.0, 0.0, 0.0, 0.0, 0.0, 1.612537533767869E9, 2021-02-05 10:05:33.767
68.0, 0.0, 0.0, 41505.9140625, 88002.3203125, -31931.232421875, -10854.0517578125, 0.0, 0.0, -0.06400000303983688, 0.9920000433921814, 0.0820000022649765, 192.0, 254.0, 0.0, 31.0, 0.0, 2.0, 144.0, 0.0, 0.0, 0.0, 1.61253753376787E9, 2021-02-05 10:05:33.767
69.0, 0.0, 0.0, 41224.05859375, 87697.3984375, -31696.716796875, -10287.7255859375, 0.0, 0.0, -0.06400000303983688, 0.9920000433921814, 0.0820000022649765, 192.0, 0.0, 0.0, 0.0, 0.0, 0.0, 0.0, 0.0, 0.0, 0.0, 1.612537533767871E9, 2021-02-05 10:05:33.767
70.0, 0.0, 0.0, 41059.59375, 87526.4765625, -31785.23046875, -9506.107421875, 0.0, 0.0, -0.06400000303983688, 0.9920000433921814, 0.0820000022649765, 192.0, 0.0, 0.0, 0.0, 0.0, 0.0, 0.0, 0.0, 0.0, 0.0, 1.612537533767877E9, 2021-02-05 10:05:33.767
71.0, 0.0, 0.0, 41333.0234375, 87819.4609375, -32047.68359375, -10049.03125, 0.0, 0.0, -0.06400000303983688, 0.9920000433921814, 0.0820000022649765, 192.0, 0.0, 0.0, 0.0, 0.0, 0.0, 0.0, 0.0, 0.0, 0.0, 1.612537533767878E9, 2021-02-05 10:05:33.767
72.0, 0.0, 0.0, 41541.09375, 88034.53125, -31958.634765625, -10840.23828125, 0.0, 0.0, -0.06400000303983688, 0.9920000433921814, 0.0820000022649765, 192.0, 0.0, 0.0, 0.0, 0.0, 0.0, 0.0, 0.0, 0.0, 0.0, 1.612537533767879E9, 2021-02-05 10:05:33.767
73.0, 0.0, 0.0, 41302.109375, 87774.6015625, -31701.1875, -10456.5029296875, 0.0, 0.0, -0.06400000303983688, 0.9920000433921814, 0.0820000022649765, 192.0, 0.0, 0.0, 0.0, 0.0, 0.0, 0.0, 0.0, 0.0, 0.0, 1.61253753376788E9, 2021-02-05 10:05:33.767
74.0, 0.0, 0.0, 41057.3125, 87518.2109375, -31731.65234375, -9573.7880859375, 0.0, 0.0, -0.06400000303983688, 0.9920000433921814, 0.0820000022649765, 192.0, 0.0, 0.0, 0.0, 0.0, 0.0, 0.0, 0.0, 0.0, 0.0, 1.612537533767881E9, 2021-02-05 10:05:33.767
75.0, 0.0, 0.0, 41256.22265625, 87736.4921875, -32022.248046875, -9864.919921875, 0.0, 0.0, -0.06400000303983688, 0.9920000433921814, 0.0820000022649765, 192.0, 0.0, 0.0, 0.0, 0.0, 0.0, 0.0, 0.0, 0.0, 0.0, 1.612537533827505E9, 2021-02-05 10:05:33.827
76.0, 0.0, 0.0, 41529.33984375, 88024.046875, -32007.830078125, -10770.322265625, 0.0, 0.0, -0.06400000303983688, 0.9920000433921814, 0.0820000022649765, 192.0, 0.0, 0.0, 0.0, 0.0, 0.0, 0.0, 0.0, 0.0, 0.0, 1.612537533827508E9, 2021-02-05 10:05:33.827
77.0, 0.0, 0.0, 41347.5078125, 87830.3046875, -31744.9296875, -10594.6142578125, 0.0, 0.0, -0.06400000303983688, 0.9920000433921814, 0.0820000022649765, 192.0, 0.0, 0.0, 0.0, 0.0, 0.0, 0.0, 0.0, 0.0, 0.0, 1.612537533827509E9, 2021-02-05 10:05:33.827
78.0, 0.0, 0.0, 41050.296875, 87514.9921875, -31716.3203125, -9676.1591796875, 0.0, 0.0, -0.06400000303983688, 0.9920000433921814, 0.0820000022649765, 192.0, 0.0, 0.0, 0.0, 0.0, 0.0, 0.0, 0.0, 0.0, 0.0, 1.612537533827511E9, 2021-02-05 10:05:33.827
79.0, 0.0, 0.0, 41200.76953125, 87682.265625, -31989.189453125, -9717.509765625, 0.0, 0.0, -0.06599999964237213, 0.9900000691413879, 0.08400000631809235, 192.0, 253.0, 240.0, 30.0, 240.0, 2.0, 160.0, 0.0, 0.0, 0.0, 1.612537533827512E9, 2021-02-05 10:05:33.827
80.0, 0.0, 0.0, 41517.671875, 88019.5546875, -32037.58203125, -10679.9755859375, 0.0, 0.0, -0.06599999964237213, 0.9900000691413879, 0.08400000631809235, 192.0, 0.0, 0.0, 0.0, 0.0, 0.0, 0.0, 0.0, 0.0, 0.0, 1.612537533827513E9, 2021-02-05 10:05:33.827
81.0, 0.0, 0.0, 41408.86328125, 87902.96875, -31773.583984375, -10719.3818359375, 0.0, 0.0, -0.06599999964237213, 0.9900000691413879, 0.08400000631809235, 192.0, 0.0, 0.0, 0.0, 0.0, 0.0, 0.0, 0.0, 0.0, 0.0, 1.612537533827514E9, 2021-02-05 10:05:33.827
82.0, 0.0, 0.0, 41089.0078125, 87556.1171875, -31673.6953125, -9823.6806640625, 0.0, 0.0, -0.06599999964237213, 0.9900000691413879, 0.08400000631809235, 192.0, 0.0, 0.0, 0.0, 0.0, 0.0, 0.0, 0.0, 0.0, 0.0, 1.612537533827515E9, 2021-02-05 10:05:33.827
83.0, 0.0, 0.0, 41137.69140625, 87610.0546875, -31931.947265625, -9592.7646484375, 0.0, 0.0, -0.06599999964237213, 0.9900000691413879, 0.08400000631809235, 192.0, 0.0, 0.0, 0.0, 0.0, 0.0, 0.0, 0.0, 0.0, 0.0, 1.612537533827516E9, 2021-02-05 10:05:33.827
84.0, 0.0, 0.0, 41466.91015625, 87963.5859375, -32067.599609375, -10533.68359375, 0.0, 0.0, -0.06599999964237213, 0.9900000691413879, 0.08400000631809235, 192.0, 0.0, 0.0, 0.0, 0.0, 0.0, 0.0, 0.0, 0.0, 0.0, 1.612537533827517E9, 2021-02-05 10:05:33.827
85.0, 0.0, 0.0, 41456.80859375, 87948.65625, -31835.5, -10800.18359375, 0.0, 0.0, -0.06599999964237213, 0.9900000691413879, 0.08400000631809235, 192.0, 0.0, 0.0, 0.0, 0.0, 0.0, 0.0, 0.0, 0.0, 0.0, 1.612537533827518E9, 2021-02-05 10:05:33.827
86.0, 0.0, 0.0, 41128.125, 87599.234375, -31677.673828125, -9979.9638671875, 0.0, 0.0, -0.06599999964237213, 0.9900000691413879, 0.08400000631809235, 192.0, 0.0, 0.0, 0.0, 0.0, 0.0, 0.0, 0.0, 0.0, 0.0, 1.612537533827519E9, 2021-02-05 10:05:33.827
87.0, 0.0, 0.0, 41096.23046875, 87570.0859375, -31885.767578125, -9512.4775390625, 0.0, 0.0, -0.06599999964237213, 0.9900000691413879, 0.08400000631809235, 192.0, 0.0, 0.0, 0.0, 0.0, 0.0, 0.0, 0.0, 0.0, 0.0, 1.61253753382752E9, 2021-02-05 10:05:33.827
88.0, 0.0, 0.0, 41423.3671875, 87921.078125, -32075.892578125, -10371.857421875, 0.0, 0.0, -0.06599999964237213, 0.9900000691413879, 0.08400000631809235, 192.0, 0.0, 0.0, 0.0, 0.0, 0.0, 0.0, 0.0, 0.0, 0.0, 1.612537533827521E9, 2021-02-05 10:05:33.827
89.0, 0.0, 0.0, 41478.35546875, 87979.953125, -31892.943359375, -10838.78515625, 0.0, 0.0, -0.06200000271201134, 0.984000027179718, 0.0820000022649765, 192.0, 254.0, 16.0, 30.0, 192.0, 2.0, 144.0, 0.0, 0.0, 0.0, 1.612537533827522E9, 2021-02-05 10:05:33.827
90.0, 0.0, 0.0, 41174.4609375, 87651.3359375, -31689.02734375, -10145.2109375, 0.0, 0.0, -0.06200000271201134, 0.984000027179718, 0.0820000022649765, 192.0, 0.0, 0.0, 0.0, 0.0, 0.0, 0.0, 0.0, 0.0, 0.0, 1.61253753388799E9, 2021-02-05 10:05:33.887
91.0, 0.0, 0.0, 41059.83984375, 87529.203125, -31840.39453125, -9481.9677734375, 0.0, 0.0, -0.06200000271201134, 0.984000027179718, 0.0820000022649765, 192.0, 0.0, 0.0, 0.0, 0.0, 0.0, 0.0, 0.0, 0.0, 0.0, 1.612537533888006E9, 2021-02-05 10:05:33.888
92.0, 0.0, 0.0, 41365.34375, 87853.8671875, -32080.787109375, -10188.3046875, 0.0, 0.0, -0.06200000271201134, 0.984000027179718, 0.0820000022649765, 192.0, 0.0, 0.0, 0.0, 0.0, 0.0, 0.0, 0.0, 0.0, 0.0, 1.612537533888008E9, 2021-02-05 10:05:33.888
93.0, 0.0, 0.0, 41516.62109375, 88010.5703125, -31945.267578125, -10858.9013671875, 0.0, 0.0, -0.06200000271201134, 0.984000027179718, 0.0820000022649765, 192.0, 0.0, 0.0, 0.0, 0.0, 0.0, 0.0, 0.0, 0.0, 0.0, 1.612537533888009E9, 2021-02-05 10:05:33.888
94.0, 0.0, 0.0, 41240.28515625, 87717.671875, -31695.533203125, -10329.791015625, 0.0, 0.0, -0.06200000271201134, 0.984000027179718, 0.0820000022649765, 192.0, 0.0, 0.0, 0.0, 0.0, 0.0, 0.0, 0.0, 0.0, 0.0, 1.612537533888014E9, 2021-02-05 10:05:33.888
95.0, 0.0, 0.0, 41049.4453125, 87521.3125, -31778.525390625, -9521.5302734375, 0.0, 0.0, -0.06200000271201134, 0.984000027179718, 0.0820000022649765, 192.0, 0.0, 0.0, 0.0, 0.0, 0.0, 0.0, 0.0, 0.0, 0.0, 1.612537533888015E9, 2021-02-05 10:05:33.888
96.0, 0.0, 0.0, 41323.94921875, 87814.546875, -32041.359375, -10020.8681640625, 0.0, 0.0, -0.06200000271201134, 0.984000027179718, 0.0820000022649765, 192.0, 0.0, 0.0, 0.0, 0.0, 0.0, 0.0, 0.0, 0.0, 0.0, 1.612537533888016E9, 2021-02-05 10:05:33.888
97.0, 0.0, 0.0, 41533.96484375, 88037.171875, -31965.51953125, -10831.23046875, 0.0, 0.0, -0.06200000271201134, 0.984000027179718, 0.0820000022649765, 192.0, 0.0, 0.0, 0.0, 0.0, 0.0, 0.0, 0.0, 0.0, 0.0, 1.612537533888017E9, 2021-02-05 10:05:33.888
98.0, 0.0, 0.0, 41305.75390625, 87788.90625, -31712.498046875, -10484.5322265625, 0.0, 0.0, -0.06200000271201134, 0.984000027179718, 0.0820000022649765, 192.0, 0.0, 0.0, 0.0, 0.0, 0.0, 0.0, 0.0, 0.0, 0.0, 1.612537533888018E9, 2021-02-05 10:05:33.888
99.0, 0.0, 0.0, 41053.359375, 87524.421875, -31725.931640625, -9592.787109375, 0.0, 0.0, -0.06400000303983688, 0.9860000610351562, 0.08400000631809235, 192.0, 254.0, 0.0, 30.0, 208.0, 2.0, 160.0, 0.0, 0.0, 0.0, 1.61253753388802E9, 2021-02-05 10:05:33.888
100.0, 0.0, 0.0, 41259.77734375, 87749.796875, -32005.41796875, -9844.087890625, 0.0, 0.0, -0.06400000303983688, 0.9860000610351562, 0.08400000631809235, 192.0, 0.0, 0.0, 0.0, 0.0, 0.0, 0.0, 0.0, 0.0, 0.0, 1.612537533888021E9, 2021-02-05 10:05:33.888
101.0, 0.0, 0.0, 41539.88671875, 88040.96875, -31997.90625, -10764.1298828125, 0.0, 0.0, -0.06400000303983688, 0.9860000610351562, 0.08400000631809235, 192.0, 0.0, 0.0, 0.0, 0.0, 0.0, 0.0, 0.0, 0.0, 0.0, 1.612537533888022E9, 2021-02-05 10:05:33.888
102.0, 0.0, 0.0, 41376.83203125, 87862.6015625, -31738.55859375, -10626.9130859375, 0.0, 0.0, -0.06400000303983688, 0.9860000610351562, 0.08400000631809235, 192.0, 0.0, 0.0, 0.0, 0.0, 0.0, 0.0, 0.0, 0.0, 0.0, 1.612537533888023E9, 2021-02-05 10:05:33.888
103.0, 0.0, 0.0, 41074.75, 87545.65625, -31696.984375, -9706.78125, 0.0, 0.0, -0.06400000303983688, 0.9860000610351562, 0.08400000631809235, 192.0, 0.0, 0.0, 0.0, 0.0, 0.0, 0.0, 0.0, 0.0, 0.0, 1.612537533888024E9, 2021-02-05 10:05:33.888
104.0, 0.0, 0.0, 41191.828125, 87677.3046875, -31979.19921875, -9684.787109375, 0.0, 0.0, -0.06400000303983688, 0.9860000610351562, 0.08400000631809235, 192.0, 0.0, 0.0, 0.0, 0.0, 0.0, 0.0, 0.0, 0.0, 0.0, 1.612537533888025E9, 2021-02-05 10:05:33.888
105.0, 0.0, 0.0, 41517.06640625, 88020.0703125, -32050.74609375, -10647.23046875, 0.0, 0.0, -0.06400000303983688, 0.9860000610351562, 0.08400000631809235, 192.0, 0.0, 0.0, 0.0, 0.0, 0.0, 0.0, 0.0, 0.0, 0.0, 1.612537533948223E9, 2021-02-05 10:05:33.948
106.0, 0.0, 0.0, 41434.07421875, 87931.203125, -31794.7734375, -10736.7939453125, 0.0, 0.0, -0.06400000303983688, 0.9860000610351562, 0.08400000631809235, 192.0, 0.0, 0.0, 0.0, 0.0, 0.0, 0.0, 0.0, 0.0, 0.0, 1.612537533948226E9, 2021-02-05 10:05:33.948
107.0, 0.0, 0.0, 41115.609375, 87588.9921875, -31678.052734375, -9856.158203125, 0.0, 0.0, -0.06400000303983688, 0.9860000610351562, 0.08400000631809235, 192.0, 0.0, 0.0, 0.0, 0.0, 0.0, 0.0, 0.0, 0.0, 0.0, 1.612537533948227E9, 2021-02-05 10:05:33.948
108.0, 0.0, 0.0, 41157.11328125, 87632.4921875, -31914.625, -9578.0126953125, 0.0, 0.0, -0.06400000303983688, 0.9860000610351562, 0.08400000631809235, 192.0, 0.0, 0.0, 0.0, 0.0, 0.0, 0.0, 0.0, 0.0, 0.0, 1.612537533948228E9, 2021-02-05 10:05:33.948
109.0, 0.0, 0.0, 41478.17578125, 87981.3125, -32062.212890625, -10507.5771484375, 0.0, 0.0, -0.06400000303983688, 0.9880000352859497, 0.08400000631809235, 192.0, 254.0, 0.0, 30.0, 224.0, 2.0, 160.0, 0.0, 0.0, 0.0, 1.612537533948229E9, 2021-02-05 10:05:33.948
110.0, 0.0, 0.0, 41484.56640625, 87986.703125, -31836.7734375, -10818.0205078125, 0.0, 0.0, -0.06400000303983688, 0.9880000352859497, 0.08400000631809235, 192.0, 0.0, 0.0, 0.0, 0.0, 0.0, 0.0, 0.0, 0.0, 0.0, 1.61253753394823E9, 2021-02-05 10:05:33.948
111.0, 0.0, 0.0, 41144.3984375, 87625.875, -31671.81640625, -10016.7998046875, 0.0, 0.0, -0.06400000303983688, 0.9880000352859497, 0.08400000631809235, 192.0, 0.0, 0.0, 0.0, 0.0, 0.0, 0.0, 0.0, 0.0, 0.0, 1.612537533948231E9, 2021-02-05 10:05:33.948
112.0, 0.0, 0.0, 41091.33203125, 87569.390625, -31874.5703125, -9499.1337890625, 0.0, 0.0, -0.06400000303983688, 0.9880000352859497, 0.08400000631809235, 192.0, 0.0, 0.0, 0.0, 0.0, 0.0, 0.0, 0.0, 0.0, 0.0, 1.612537533948232E9, 2021-02-05 10:05:33.948
113.0, 0.0, 0.0, 41432.69140625, 87930.8671875, -32071.109375, -10332.361328125, 0.0, 0.0, -0.06400000303983688, 0.9880000352859497, 0.08400000631809235, 192.0, 0.0, 0.0, 0.0, 0.0, 0.0, 0.0, 0.0, 0.0, 0.0, 1.612537533948233E9, 2021-02-05 10:05:33.948
114.0, 0.0, 0.0, 41512.46484375, 88017.1015625, -31888.62890625, -10846.3173828125, 0.0, 0.0, -0.06400000303983688, 0.9880000352859497, 0.08400000631809235, 192.0, 0.0, 0.0, 0.0, 0.0, 0.0, 0.0, 0.0, 0.0, 0.0, 1.612537533948234E9, 2021-02-05 10:05:33.948
115.0, 0.0, 0.0, 41225.890625, 87706.921875, -31667.548828125, -10192.3056640625, 0.0, 0.0, -0.06400000303983688, 0.9880000352859497, 0.08400000631809235, 192.0, 0.0, 0.0, 0.0, 0.0, 0.0, 0.0, 0.0, 0.0, 0.0, 1.612537533948235E9, 2021-02-05 10:05:33.948
116.0, 0.0, 0.0, 41078.234375, 87552.515625, -31806.330078125, -9490.3935546875, 0.0, 0.0, -0.06400000303983688, 0.9880000352859497, 0.08400000631809235, 192.0, 0.0, 0.0, 0.0, 0.0, 0.0, 0.0, 0.0, 0.0, 0.0, 1.612537533948237E9, 2021-02-05 10:05:33.948
117.0, 0.0, 0.0, 41371.4453125, 87868.796875, -32057.451171875, -10152.2294921875, 0.0, 0.0, -0.06400000303983688, 0.9880000352859497, 0.08400000631809235, 192.0, 0.0, 0.0, 0.0, 0.0, 0.0, 0.0, 0.0, 0.0, 0.0, 1.612537533948243E9, 2021-02-05 10:05:33.948
118.0, 0.0, 0.0, 41526.69921875, 88032.765625, -31933.98046875, -10845.490234375, 0.0, 0.0, -0.06400000303983688, 0.9880000352859497, 0.08400000631809235, 192.0, 0.0, 0.0, 0.0, 0.0, 0.0, 0.0, 0.0, 0.0, 0.0, 1.612537533948244E9, 2021-02-05 10:05:33.948
119.0, 0.0, 0.0, 41262.99609375, 87742.1953125, -31684.625, -10348.2314453125, 0.0, 0.0, -0.06400000303983688, 0.984000027179718, 0.08400000631809235, 192.0, 254.0, 0.0, 30.0, 192.0, 2.0, 160.0, 0.0, 0.0, 0.0, 1.612537533948245E9, 2021-02-05 10:05:33.948
120.0, 0.0, 0.0, 41059.1484375, 87532.6015625, -31749.154296875, -9517.953125, 0.0, 0.0, -0.06400000303983688, 0.984000027179718, 0.08400000631809235, 192.0, 0.0, 0.0, 0.0, 0.0, 0.0, 0.0, 0.0, 0.0, 0.0, 1.612537534008408E9, 2021-02-05 10:05:34.008
121.0, 0.0, 0.0, 41333.46875, 87827.6875, -32011.921875, -9975.7841796875, 0.0, 0.0, -0.06400000303983688, 0.984000027179718, 0.08400000631809235, 192.0, 0.0, 0.0, 0.0, 0.0, 0.0, 0.0, 0.0, 0.0, 0.0, 1.612537534008411E9, 2021-02-05 10:05:34.008
122.0, 0.0, 0.0, 41546.078125, 88050.46875, -31963.798828125, -10814.4443359375, 0.0, 0.0, -0.06400000303983688, 0.984000027179718, 0.08400000631809235, 192.0, 0.0, 0.0, 0.0, 0.0, 0.0, 0.0, 0.0, 0.0, 0.0, 1.612537534008412E9, 2021-02-05 10:05:34.008
123.0, 0.0, 0.0, 41337.359375, 87831.1328125, -31708.5859375, -10512.1591796875, 0.0, 0.0, -0.06400000303983688, 0.984000027179718, 0.08400000631809235, 192.0, 0.0, 0.0, 0.0, 0.0, 0.0, 0.0, 0.0, 0.0, 0.0, 1.612537534008413E9, 2021-02-05 10:05:34.008
124.0, 0.0, 0.0, 41075.84375, 87555.3359375, -31710.75390625, -9610.556640625, 0.0, 0.0, -0.06400000303983688, 0.984000027179718, 0.08400000631809235, 192.0, 0.0, 0.0, 0.0, 0.0, 0.0, 0.0, 0.0, 0.0, 0.0, 1.612537534008414E9, 2021-02-05 10:05:34.008
125.0, 0.0, 0.0, 41257.62890625, 87748.6328125, -31997.056640625, -9805.486328125, 0.0, 0.0, -0.06400000303983688, 0.984000027179718, 0.08400000631809235, 192.0, 0.0, 0.0, 0.0, 0.0, 0.0, 0.0, 0.0, 0.0, 0.0, 1.612537534008415E9, 2021-02-05 10:05:34.008
126.0, 0.0, 0.0, 41543.578125, 88046.0, -32011.876953125, -10742.29296875, 0.0, 0.0, -0.06400000303983688, 0.984000027179718, 0.08400000631809235, 192.0, 0.0, 0.0, 0.0, 0.0, 0.0, 0.0, 0.0, 0.0, 0.0, 1.612537534008416E9, 2021-02-05 10:05:34.008
127.0, 0.0, 0.0, 41399.3203125, 87884.0390625, -31749.9140625, -10654.986328125, 0.0, 0.0, -0.06400000303983688, 0.984000027179718, 0.08400000631809235, 192.0, 0.0, 0.0, 0.0, 0.0, 0.0, 0.0, 0.0, 0.0, 0.0, 1.612537534008417E9, 2021-02-05 10:05:34.008
128.0, 0.0, 0.0, 41088.2734375, 87556.3359375, -31692.068359375, -9739.19140625, 0.0, 0.0, -0.06400000303983688, 0.984000027179718, 0.08400000631809235, 192.0, 0.0, 0.0, 0.0, 0.0, 0.0, 0.0, 0.0, 0.0, 0.0, 1.612537534008418E9, 2021-02-05 10:05:34.008
129.0, 0.0, 0.0, 41199.13671875, 87679.6953125, -31951.728515625, -9665.765625, 0.0, 0.0, -0.06400000303983688, 0.984000027179718, 0.08400000631809235, 192.0, 0.0, 0.0, 0.0, 0.0, 0.0, 0.0, 0.0, 0.0, 0.0, 1.612537534008419E9, 2021-02-05 10:05:34.008
130.0, 0.0, 0.0, 41528.48828125, 88031.9609375, -32027.388671875, -10627.091796875, 0.0, 0.0, -0.06800000369548798, 0.9900000691413879, 0.0820000022649765, 192.0, 253.0, 224.0, 30.0, 240.0, 2.0, 144.0, 0.0, 0.0, 0.0, 1.61253753400842E9, 2021-02-05 10:05:34.008
131.0, 0.0, 0.0, 41443.26171875, 87938.578125, -31786.75, -10750.5185546875, 0.0, 0.0, -0.06800000369548798, 0.9900000691413879, 0.0820000022649765, 192.0, 0.0, 0.0, 0.0, 0.0, 0.0, 0.0, 0.0, 0.0, 0.0, 1.612537534008421E9, 2021-02-05 10:05:34.008
132.0, 0.0, 0.0, 41113.9765625, 87587.5234375, -31672.107421875, -9877.1015625, 0.0, 0.0, -0.06800000369548798, 0.9900000691413879, 0.0820000022649765, 192.0, 0.0, 0.0, 0.0, 0.0, 0.0, 0.0, 0.0, 0.0, 0.0, 1.612537534008422E9, 2021-02-05 10:05:34.008
133.0, 0.0, 0.0, 41151.52734375, 87629.7890625, -31892.384765625, -9559.662109375, 0.0, 0.0, -0.06800000369548798, 0.9900000691413879, 0.0820000022649765, 192.0, 0.0, 0.0, 0.0, 0.0, 0.0, 0.0, 0.0, 0.0, 0.0, 1.612537534008424E9, 2021-02-05 10:05:34.008
134.0, 0.0, 0.0, 41486.87109375, 87983.5, -32044.443359375, -10477.1787109375, 0.0, 0.0, -0.06800000369548798, 0.9900000691413879, 0.0820000022649765, 192.0, 0.0, 0.0, 0.0, 0.0, 0.0, 0.0, 0.0, 0.0, 0.0, 1.612537534008425E9, 2021-02-05 10:05:34.008
135.0, 0.0, 0.0, 41495.296875, 87991.9765625, -31830.693359375, -10828.1904296875, 0.0, 0.0, -0.06800000369548798, 0.9900000691413879, 0.0820000022649765, 192.0, 0.0, 0.0, 0.0, 0.0, 0.0, 0.0, 0.0, 0.0, 0.0, 1.612537534068751E9, 2021-02-05 10:05:34.068
136.0, 0.0, 0.0, 41154.76953125, 87633.7421875, -31662.876953125, -10048.7177734375, 0.0, 0.0, -0.06800000369548798, 0.9900000691413879, 0.0820000022649765, 192.0, 0.0, 0.0, 0.0, 0.0, 0.0, 0.0, 0.0, 0.0, 0.0, 1.612537534068754E9, 2021-02-05 10:05:34.068
137.0, 0.0, 0.0, 41099.6484375, 87578.375, -31840.595703125, -9492.6962890625, 0.0, 0.0, -0.06800000369548798, 0.9900000691413879, 0.0820000022649765, 192.0, 0.0, 0.0, 0.0, 0.0, 0.0, 0.0, 0.0, 0.0, 0.0, 1.612537534068755E9, 2021-02-05 10:05:34.068
138.0, 0.0, 0.0, 41445.54296875, 87945.953125, -32040.755859375, -10305.3828125, 0.0, 0.0, -0.06800000369548798, 0.9900000691413879, 0.0820000022649765, 192.0, 0.0, 0.0, 0.0, 0.0, 0.0, 0.0, 0.0, 0.0, 0.0, 1.612537534068756E9, 2021-02-05 10:05:34.068
139.0, 0.0, 0.0, 41544.0234375, 88051.453125, -31865.3828125, -10863.037109375, 0.0, 0.0, -0.06800000369548798, 0.9900000691413879, 0.0820000022649765, 192.0, 0.0, 0.0, 0.0, 0.0, 0.0, 0.0, 0.0, 0.0, 0.0, 1.612537534068757E9, 2021-02-05 10:05:34.068
140.0, 0.0, 0.0, 41237.06640625, 87722.03125, -31646.08984375, -10230.080078125, 0.0, 0.0, -0.07400000095367432, 0.9900000691413879, 0.08000000566244125, 192.0, 253.0, 176.0, 30.0, 240.0, 2.0, 128.0, 0.0, 0.0, 0.0, 1.612537534068764E9, 2021-02-05 10:05:34.068
141.0, 0.0, 0.0, 41078.125, 87552.765625, -31782.81640625, -9490.2373046875, 0.0, 0.0, -0.07400000095367432, 0.9900000691413879, 0.08000000566244125, 192.0, 0.0, 0.0, 0.0, 0.0, 0.0, 0.0, 0.0, 0.0, 0.0, 1.612537534068765E9, 2021-02-05 10:05:34.068
142.0, 0.0, 0.0, 41385.66015625, 87876.90625, -32030.384765625, -10121.7412109375, 0.0, 0.0, -0.07400000095367432, 0.9900000691413879, 0.08000000566244125, 192.0, 0.0, 0.0, 0.0, 0.0, 0.0, 0.0, 0.0, 0.0, 0.0, 1.612537534068766E9, 2021-02-05 10:05:34.068
143.0, 0.0, 0.0, 41567.62890625, 88065.53125, -31914.625, -10853.6494140625, 0.0, 0.0, -0.07400000095367432, 0.9900000691413879, 0.08000000566244125, 192.0, 0.0, 0.0, 0.0, 0.0, 0.0, 0.0, 0.0, 0.0, 0.0, 1.612537534068767E9, 2021-02-05 10:05:34.068
144.0, 0.0, 0.0, 41313.2421875, 87795.171875, -31662.98828125, -10398.34375, 0.0, 0.0, -0.07400000095367432, 0.9900000691413879, 0.08000000566244125, 192.0, 0.0, 0.0, 0.0, 0.0, 0.0, 0.0, 0.0, 0.0, 0.0, 1.612537534068769E9, 2021-02-05 10:05:34.068
145.0, 0.0, 0.0, 41084.47265625, 87556.0078125, -31728.724609375, -9539.34375, 0.0, 0.0, -0.07400000095367432, 0.9900000691413879, 0.08000000566244125, 192.0, 0.0, 0.0, 0.0, 0.0, 0.0, 0.0, 0.0, 0.0, 0.0, 1.61253753406877E9, 2021-02-05 10:05:34.068
146.0, 0.0, 0.0, 41327.546875, 87816.78125, -32014.15625, -9934.5009765625, 0.0, 0.0, -0.07400000095367432, 0.9900000691413879, 0.08000000566244125, 192.0, 0.0, 0.0, 0.0, 0.0, 0.0, 0.0, 0.0, 0.0, 0.0, 1.612537534068771E9, 2021-02-05 10:05:34.068
147.0, 0.0, 0.0, 41557.390625, 88060.6875, -31986.10546875, -10790.125, 0.0, 0.0, -0.07400000095367432, 0.9900000691413879, 0.08000000566244125, 192.0, 0.0, 0.0, 0.0, 0.0, 0.0, 0.0, 0.0, 0.0, 0.0, 1.612537534068772E9, 2021-02-05 10:05:34.068
148.0, 0.0, 0.0, 41362.97265625, 87852.8125, -31725.73046875, -10530.80078125, 0.0, 0.0, -0.07400000095367432, 0.9900000691413879, 0.08000000566244125, 192.0, 0.0, 0.0, 0.0, 0.0, 0.0, 0.0, 0.0, 0.0, 0.0, 1.612537534068773E9, 2021-02-05 10:05:34.068
149.0, 0.0, 0.0, 41079.5546875, 87558.3515625, -31722.17578125, -9619.5419921875, 0.0, 0.0, -0.07400000095367432, 0.9900000691413879, 0.08000000566244125, 192.0, 0.0, 0.0, 0.0, 0.0, 0.0, 0.0, 0.0, 0.0, 0.0, 1.612537534068774E9, 2021-02-05 10:05:34.068
150.0, 0.0, 0.0, 41261.07421875, 87749.2578125, -32004.2109375, -9765.3876953125, 0.0, 0.0, -0.07000000029802322, 0.9860000610351562, 0.0860000029206276, 192.0, 253.0, 208.0, 30.0, 208.0, 2.0, 176.0, 0.0, 0.0, 0.0, 1.612537534127723E9, 2021-02-05 10:05:34.127
151.0, 0.0, 0.0, 41547.66796875, 88050.578125, -32036.5078125, -10706.462890625, 0.0, 0.0, -0.07000000029802322, 0.9860000610351562, 0.0860000029206276, 192.0, 0.0, 0.0, 0.0, 0.0, 0.0, 0.0, 0.0, 0.0, 0.0, 1.612537534127727E9, 2021-02-05 10:05:34.127
152.0, 0.0, 0.0, 41415.5234375, 87909.6953125, -31776.6015625, -10659.748046875, 0.0, 0.0, -0.07000000029802322, 0.9860000610351562, 0.0860000029206276, 192.0, 0.0, 0.0, 0.0, 0.0, 0.0, 0.0, 0.0, 0.0, 0.0, 1.612537534127728E9, 2021-02-05 10:05:34.127
153.0, 0.0, 0.0, 41103.76171875, 87576.609375, -31695.30859375, -9746.455078125, 0.0, 0.0, -0.07000000029802322, 0.9860000610351562, 0.0860000029206276, 192.0, 0.0, 0.0, 0.0, 0.0, 0.0, 0.0, 0.0, 0.0, 0.0, 1.612537534127729E9, 2021-02-05 10:05:34.127
154.0, 0.0, 0.0, 41191.24609375, 87672.140625, -31961.853515625, -9616.591796875, 0.0, 0.0, -0.07000000029802322, 0.9860000610351562, 0.0860000029206276, 192.0, 0.0, 0.0, 0.0, 0.0, 0.0, 0.0, 0.0, 0.0, 0.0, 1.61253753412773E9, 2021-02-05 10:05:34.127
155.0, 0.0, 0.0, 41521.8515625, 88029.640625, -32056.9375, -10576.263671875, 0.0, 0.0, -0.07000000029802322, 0.9860000610351562, 0.0860000029206276, 192.0, 0.0, 0.0, 0.0, 0.0, 0.0, 0.0, 0.0, 0.0, 0.0, 1.612537534127731E9, 2021-02-05 10:05:34.127
156.0, 0.0, 0.0, 41475.203125, 87974.96875, -31808.296875, -10756.75390625, 0.0, 0.0, -0.07000000029802322, 0.9860000610351562, 0.0860000029206276, 192.0, 0.0, 0.0, 0.0, 0.0, 0.0, 0.0, 0.0, 0.0, 0.0, 1.612537534127732E9, 2021-02-05 10:05:34.127
157.0, 0.0, 0.0, 41152.265625, 87629.34375, -31667.59375, -9904.7060546875, 0.0, 0.0, -0.07000000029802322, 0.9860000610351562, 0.0860000029206276, 192.0, 0.0, 0.0, 0.0, 0.0, 0.0, 0.0, 0.0, 0.0, 0.0, 1.612537534127733E9, 2021-02-05 10:05:34.127
158.0, 0.0, 0.0, 41137.19921875, 87622.390625, -31901.2578125, -9521.1943359375, 0.0, 0.0, -0.07000000029802322, 0.9860000610351562, 0.0860000029206276, 192.0, 0.0, 0.0, 0.0, 0.0, 0.0, 0.0, 0.0, 0.0, 0.0, 1.612537534127735E9, 2021-02-05 10:05:34.127
159.0, 0.0, 0.0, 41476.58984375, 87982.5625, -32073.1875, -10418.3935546875, 0.0, 0.0, -0.07000000029802322, 0.9860000610351562, 0.0860000029206276, 192.0, 0.0, 0.0, 0.0, 0.0, 0.0, 0.0, 0.0, 0.0, 0.0, 1.612537534127736E9, 2021-02-05 10:05:34.127
160.0, 0.0, 0.0, 41526.23046875, 88023.9140625, -31848.373046875, -10814.9130859375, 0.0, 0.0, -0.06599999964237213, 0.9860000610351562, 0.0820000022649765, 192.0, 253.0, 240.0, 30.0, 208.0, 2.0, 144.0, 0.0, 0.0, 0.0, 1.612537534127737E9, 2021-02-05 10:05:34.127
161.0, 0.0, 0.0, 41201.28125, 87678.3359375, -31657.69140625, -10067.203125, 0.0, 0.0, -0.06599999964237213, 0.9860000610351562, 0.0820000022649765, 192.0, 0.0, 0.0, 0.0, 0.0, 0.0, 0.0, 0.0, 0.0, 0.0, 1.612537534127738E9, 2021-02-05 10:05:34.127
162.0, 0.0, 0.0, 41103.40234375, 87580.1015625, -31840.7734375, -9466.208984375, 0.0, 0.0, -0.06599999964237213, 0.9860000610351562, 0.0820000022649765, 192.0, 0.0, 0.0, 0.0, 0.0, 0.0, 0.0, 0.0, 0.0, 0.0, 1.612537534127739E9, 2021-02-05 10:05:34.127
163.0, 0.0, 0.0, 41441.18359375, 87941.171875, -32058.525390625, -10246.1513671875, 0.0, 0.0, -0.06599999964237213, 0.9860000610351562, 0.0820000022649765, 192.0, 0.0, 0.0, 0.0, 0.0, 0.0, 0.0, 0.0, 0.0, 0.0, 1.612537534127747E9, 2021-02-05 10:05:34.127
164.0, 0.0, 0.0, 41558.3046875, 88065.9609375, -31891.669921875, -10846.0048828125, 0.0, 0.0, -0.06599999964237213, 0.9860000610351562, 0.0820000022649765, 192.0, 0.0, 0.0, 0.0, 0.0, 0.0, 0.0, 0.0, 0.0, 0.0, 1.612537534127748E9, 2021-02-05 10:05:34.127
165.0, 0.0, 0.0, 41256.35546875, 87742.7734375, -31668.375, -10248.095703125, 0.0, 0.0, -0.06599999964237213, 0.9860000610351562, 0.0820000022649765, 192.0, 0.0, 0.0, 0.0, 0.0, 0.0, 0.0, 0.0, 0.0, 0.0, 1.612537534187823E9, 2021-02-05 10:05:34.187
166.0, 0.0, 0.0, 41081.74609375, 87561.96875, -31793.8359375, -9485.990234375, 0.0, 0.0, -0.06599999964237213, 0.9860000610351562, 0.0820000022649765, 192.0, 0.0, 0.0, 0.0, 0.0, 0.0, 0.0, 0.0, 0.0, 0.0, 1.612537534187826E9, 2021-02-05 10:05:34.187
167.0, 0.0, 0.0, 41384.140625, 87880.21875, -32047.595703125, -10077.462890625, 0.0, 0.0, -0.06599999964237213, 0.9860000610351562, 0.0820000022649765, 192.0, 0.0, 0.0, 0.0, 0.0, 0.0, 0.0, 0.0, 0.0, 0.0, 1.612537534187827E9, 2021-02-05 10:05:34.187
168.0, 0.0, 0.0, 41574.578125, 88081.609375, -31945.87109375, -10838.0029296875, 0.0, 0.0, -0.06599999964237213, 0.9860000610351562, 0.0820000022649765, 192.0, 0.0, 0.0, 0.0, 0.0, 0.0, 0.0, 0.0, 0.0, 0.0, 1.612537534187828E9, 2021-02-05 10:05:34.187
169.0, 0.0, 0.0, 41329.2890625, 87819.9765625, -31696.650390625, -10413.3193359375, 0.0, 0.0, -0.06599999964237213, 0.9860000610351562, 0.0820000022649765, 192.0, 0.0, 0.0, 0.0, 0.0, 0.0, 0.0, 0.0, 0.0, 0.0, 1.612537534187829E9, 2021-02-05 10:05:34.187
170.0, 0.0, 0.0, 41096.8984375, 87576.859375, -31741.62109375, -9551.9501953125, 0.0, 0.0, -0.06800000369548798, 0.9920000433921814, 0.08000000566244125, 192.0, 253.0, 224.0, 31.0, 0.0, 2.0, 128.0, 0.0, 0.0, 0.0, 1.61253753418783E9, 2021-02-05 10:05:34.187
171.0, 0.0, 0.0, 41320.86328125, 87818.1875, -32023.72265625, -9904.728515625, 0.0, 0.0, -0.06800000369548798, 0.9920000433921814, 0.08000000566244125, 192.0, 0.0, 0.0, 0.0, 0.0, 0.0, 0.0, 0.0, 0.0, 0.0, 1.612537534187831E9, 2021-02-05 10:05:34.187
172.0, 0.0, 0.0, 41570.19921875, 88083.171875, -31991.42578125, -10780.8720703125, 0.0, 0.0, -0.06800000369548798, 0.9920000433921814, 0.08000000566244125, 192.0, 0.0, 0.0, 0.0, 0.0, 0.0, 0.0, 0.0, 0.0, 0.0, 1.612537534187832E9, 2021-02-05 10:05:34.187
173.0, 0.0, 0.0, 41371.19921875, 87869.3515625, -31739.07421875, -10559.7685546875, 0.0, 0.0, -0.06800000369548798, 0.9920000433921814, 0.08000000566244125, 192.0, 0.0, 0.0, 0.0, 0.0, 0.0, 0.0, 0.0, 0.0, 0.0, 1.612537534187833E9, 2021-02-05 10:05:34.187
174.0, 0.0, 0.0, 41090.1953125, 87568.3203125, -31715.873046875, -9646.498046875, 0.0, 0.0, -0.06800000369548798, 0.9920000433921814, 0.08000000566244125, 192.0, 0.0, 0.0, 0.0, 0.0, 0.0, 0.0, 0.0, 0.0, 0.0, 1.612537534187834E9, 2021-02-05 10:05:34.187
175.0, 0.0, 0.0, 41252.421875, 87742.4609375, -31990.59765625, -9740.3310546875, 0.0, 0.0, -0.06800000369548798, 0.9920000433921814, 0.08000000566244125, 192.0, 0.0, 0.0, 0.0, 0.0, 0.0, 0.0, 0.0, 0.0, 0.0, 1.612537534187835E9, 2021-02-05 10:05:34.187
176.0, 0.0, 0.0, 41555.35546875, 88071.2109375, -32023.923828125, -10694.080078125, 0.0, 0.0, -0.06800000369548798, 0.9920000433921814, 0.08000000566244125, 192.0, 0.0, 0.0, 0.0, 0.0, 0.0, 0.0, 0.0, 0.0, 0.0, 1.612537534187836E9, 2021-02-05 10:05:34.187
177.0, 0.0, 0.0, 41424.48828125, 87928.4296875, -31772.7578125, -10678.5458984375, 0.0, 0.0, -0.06800000369548798, 0.9920000433921814, 0.08000000566244125, 192.0, 0.0, 0.0, 0.0, 0.0, 0.0, 0.0, 0.0, 0.0, 0.0, 1.612537534187838E9, 2021-02-05 10:05:34.187
178.0, 0.0, 0.0, 41113.1953125, 87592.015625, -31687.84375, -9773.076171875, 0.0, 0.0, -0.06800000369548798, 0.9920000433921814, 0.08000000566244125, 192.0, 0.0, 0.0, 0.0, 0.0, 0.0, 0.0, 0.0, 0.0, 0.0, 1.612537534187839E9, 2021-02-05 10:05:34.187
179.0, 0.0, 0.0, 41184.47265625, 87672.8828125, -31946.990234375, -9598.0849609375, 0.0, 0.0, -0.06800000369548798, 0.9920000433921814, 0.08000000566244125, 192.0, 0.0, 0.0, 0.0, 0.0, 0.0, 0.0, 0.0, 0.0, 0.0, 1.61253753418784E9, 2021-02-05 10:05:34.187
180.0, 0.0, 0.0, 41515.30078125, 88024.1640625, -32061.921875, -10545.1728515625, 0.0, 0.0, -0.06800000369548798, 0.9920000433921814, 0.08000000566244125, 192.0, 0.0, 0.0, 0.0, 0.0, 0.0, 0.0, 0.0, 0.0, 0.0, 1.612537534187841E9, 2021-02-05 10:05:34.187
181.0, 0.0, 0.0, 41487.83203125, 87990.296875, -31815.71875, -10767.6396484375, 0.0, 0.0, -0.06800000369548798, 0.9980000257492065, 0.0820000022649765, 192.0, 253.0, 224.0, 31.0, 48.0, 2.0, 144.0, 0.0, 0.0, 0.0, 1.612537534250525E9, 2021-02-05 10:05:34.250
182.0, 0.0, 0.0, 41170.9296875, 87649.296875, -31655.03125, -9941.02734375, 0.0, 0.0, -0.06800000369548798, 0.9980000257492065, 0.0820000022649765, 192.0, 0.0, 0.0, 0.0, 0.0, 0.0, 0.0, 0.0, 0.0, 0.0, 1.612537534250527E9, 2021-02-05 10:05:34.250
183.0, 0.0, 0.0, 41149.6953125, 87627.4609375, -31870.970703125, -9523.384765625, 0.0, 0.0, -0.06800000369548798, 0.9980000257492065, 0.0820000022649765, 192.0, 0.0, 0.0, 0.0, 0.0, 0.0, 0.0, 0.0, 0.0, 0.0, 1.612537534250528E9, 2021-02-05 10:05:34.250
184.0, 0.0, 0.0, 41487.5859375, 87992.53125, -32045.494140625, -10410.9501953125, 0.0, 0.0, -0.06800000369548798, 0.9980000257492065, 0.0820000022649765, 192.0, 0.0, 0.0, 0.0, 0.0, 0.0, 0.0, 0.0, 0.0, 0.0, 1.612537534250529E9, 2021-02-05 10:05:34.250
185.0, 0.0, 0.0, 41535.6640625, 88045.375, -31844.865234375, -10849.15625, 0.0, 0.0, -0.06800000369548798, 0.9980000257492065, 0.0820000022649765, 192.0, 0.0, 0.0, 0.0, 0.0, 0.0, 0.0, 0.0, 0.0, 0.0, 1.61253753425053E9, 2021-02-05 10:05:34.250
186.0, 0.0, 0.0, 41216.34765625, 87694.25, -31648.080078125, -10126.748046875, 0.0, 0.0, -0.06800000369548798, 0.9980000257492065, 0.0820000022649765, 192.0, 0.0, 0.0, 0.0, 0.0, 0.0, 0.0, 0.0, 0.0, 0.0, 1.612537534250531E9, 2021-02-05 10:05:34.250
187.0, 0.0, 0.0, 41097.99609375, 87571.71875, -31826.693359375, -9485.4541015625, 0.0, 0.0, -0.06800000369548798, 0.9980000257492065, 0.0820000022649765, 192.0, 0.0, 0.0, 0.0, 0.0, 0.0, 0.0, 0.0, 0.0, 0.0, 1.612537534250536E9, 2021-02-05 10:05:34.250
188.0, 0.0, 0.0, 41433.31640625, 87934.5546875, -32057.138671875, -10231.7568359375, 0.0, 0.0, -0.06800000369548798, 0.9980000257492065, 0.0820000022649765, 192.0, 0.0, 0.0, 0.0, 0.0, 0.0, 0.0, 0.0, 0.0, 0.0, 1.612537534250537E9, 2021-02-05 10:05:34.250
189.0, 0.0, 0.0, 41561.8828125, 88066.2265625, -31907.494140625, -10858.8349609375, 0.0, 0.0, -0.06800000369548798, 0.9980000257492065, 0.0820000022649765, 192.0, 0.0, 0.0, 0.0, 0.0, 0.0, 0.0, 0.0, 0.0, 0.0, 1.612537534250538E9, 2021-02-05 10:05:34.250
190.0, 0.0, 0.0, 41287.203125, 87769.953125, -31664.708984375, -10296.1962890625, 0.0, 0.0, -0.06800000369548798, 0.9980000257492065, 0.0820000022649765, 192.0, 0.0, 0.0, 0.0, 0.0, 0.0, 0.0, 0.0, 0.0, 0.0, 1.612537534250539E9, 2021-02-05 10:05:34.250
191.0, 0.0, 0.0, 41095.1796875, 87574.421875, -31770.12109375, -9504.564453125, 0.0, 0.0, -0.07000000029802322, 0.9940000176429749, 0.08400000631809235, 192.0, 253.0, 208.0, 31.0, 16.0, 2.0, 160.0, 0.0, 0.0, 0.0, 1.61253753425054E9, 2021-02-05 10:05:34.250
192.0, 0.0, 0.0, 41375.515625, 87875.34375, -32036.3515625, -10046.9296875, 0.0, 0.0, -0.07000000029802322, 0.9940000176429749, 0.08400000631809235, 192.0, 0.0, 0.0, 0.0, 0.0, 0.0, 0.0, 0.0, 0.0, 0.0, 1.612537534250542E9, 2021-02-05 10:05:34.250
193.0, 0.0, 0.0, 41576.3203125, 88082.7421875, -31956.4453125, -10832.080078125, 0.0, 0.0, -0.07000000029802322, 0.9940000176429749, 0.08400000631809235, 192.0, 0.0, 0.0, 0.0, 0.0, 0.0, 0.0, 0.0, 0.0, 0.0, 1.612537534250543E9, 2021-02-05 10:05:34.250
194.0, 0.0, 0.0, 41342.41015625, 87828.8046875, -31694.34765625, -10454.759765625, 0.0, 0.0, -0.07000000029802322, 0.9940000176429749, 0.08400000631809235, 192.0, 0.0, 0.0, 0.0, 0.0, 0.0, 0.0, 0.0, 0.0, 0.0, 1.612537534250544E9, 2021-02-05 10:05:34.250
195.0, 0.0, 0.0, 41084.6953125, 87558.796875, -31733.93359375, -9567.5078125, 0.0, 0.0, -0.07000000029802322, 0.9940000176429749, 0.08400000631809235, 192.0, 0.0, 0.0, 0.0, 0.0, 0.0, 0.0, 0.0, 0.0, 0.0, 1.612537534250545E9, 2021-02-05 10:05:34.250
196.0, 0.0, 0.0, 41299.09375, 87792.3515625, -32016.2578125, -9867.646484375, 0.0, 0.0, -0.07000000029802322, 0.9940000176429749, 0.08400000631809235, 192.0, 0.0, 0.0, 0.0, 0.0, 0.0, 0.0, 0.0, 0.0, 0.0, 1.612537534309456E9, 2021-02-05 10:05:34.309
197.0, 0.0, 0.0, 41549.8359375, 88057.890625, -32009.685546875, -10765.2255859375, 0.0, 0.0, -0.07000000029802322, 0.9940000176429749, 0.08400000631809235, 192.0, 0.0, 0.0, 0.0, 0.0, 0.0, 0.0, 0.0, 0.0, 0.0, 1.612537534309459E9, 2021-02-05 10:05:34.309
198.0, 0.0, 0.0, 41385.83984375, 87878.984375, -31740.728515625, -10588.2890625, 0.0, 0.0, -0.07000000029802322, 0.9940000176429749, 0.08400000631809235, 192.0, 0.0, 0.0, 0.0, 0.0, 0.0, 0.0, 0.0, 0.0, 0.0, 1.612537534309461E9, 2021-02-05 10:05:34.309
199.0, 0.0, 0.0, 41108.34375, 87582.6484375, -31694.951171875, -9678.037109375, 0.0, 0.0, -0.07000000029802322, 0.9940000176429749, 0.08400000631809235, 192.0, 0.0, 0.0, 0.0, 0.0, 0.0, 0.0, 0.0, 0.0, 0.0, 1.612537534309462E9, 2021-02-05 10:05:34.309
200.0, 0.0, 0.0, 41239.34765625, 87733.7265625, -31967.6640625, -9714.1796875, 0.0, 0.0, -0.07000000029802322, 0.9940000176429749, 0.08400000631809235, 192.0, 0.0, 0.0, 0.0, 0.0, 0.0, 0.0, 0.0, 0.0, 0.0, 1.612537534309463E9, 2021-02-05 10:05:34.309
201.0, 0.0, 0.0, 41547.2421875, 88060.5703125, -32028.751953125, -10659.3896484375, 0.0, 0.0, -0.07200000435113907, 0.9900000691413879, 0.0820000022649765, 192.0, 253.0, 192.0, 30.0, 240.0, 2.0, 144.0, 0.0, 0.0, 0.0, 1.612537534309464E9, 2021-02-05 10:05:34.309
202.0, 0.0, 0.0, 41449.67578125, 87950.0859375, -31773.025390625, -10698.103515625, 0.0, 0.0, -0.07200000435113907, 0.9900000691413879, 0.0820000022649765, 192.0, 0.0, 0.0, 0.0, 0.0, 0.0, 0.0, 0.0, 0.0, 0.0, 1.612537534309465E9, 2021-02-05 10:05:34.309
203.0, 0.0, 0.0, 41120.30078125, 87605.7109375, -31677.29296875, -9805.4189453125, 0.0, 0.0, -0.07200000435113907, 0.9900000691413879, 0.0820000022649765, 192.0, 0.0, 0.0, 0.0, 0.0, 0.0, 0.0, 0.0, 0.0, 0.0, 1.612537534309466E9, 2021-02-05 10:05:34.309
204.0, 0.0, 0.0, 41174.4140625, 87669.75, -31932.841796875, -9578.9736328125, 0.0, 0.0, -0.07200000435113907, 0.9900000691413879, 0.0820000022649765, 192.0, 0.0, 0.0, 0.0, 0.0, 0.0, 0.0, 0.0, 0.0, 0.0, 1.612537534309467E9, 2021-02-05 10:05:34.309
205.0, 0.0, 0.0, 41526.54296875, 88041.6875, -32049.31640625, -10526.9111328125, 0.0, 0.0, -0.07200000435113907, 0.9900000691413879, 0.0820000022649765, 192.0, 0.0, 0.0, 0.0, 0.0, 0.0, 0.0, 0.0, 0.0, 0.0, 1.612537534309468E9, 2021-02-05 10:05:34.309
206.0, 0.0, 0.0, 41506.4296875, 88016.09375, -31809.5703125, -10782.90625, 0.0, 0.0, -0.07200000435113907, 0.9900000691413879, 0.0820000022649765, 192.0, 0.0, 0.0, 0.0, 0.0, 0.0, 0.0, 0.0, 0.0, 0.0, 1.612537534309469E9, 2021-02-05 10:05:34.309
207.0, 0.0, 0.0, 41185.09765625, 87665.015625, -31653.421875, -9968.69921875, 0.0, 0.0, -0.07200000435113907, 0.9900000691413879, 0.0820000022649765, 192.0, 0.0, 0.0, 0.0, 0.0, 0.0, 0.0, 0.0, 0.0, 0.0, 1.61253753430947E9, 2021-02-05 10:05:34.309
208.0, 0.0, 0.0, 41160.78125, 87643.2421875, -31853.111328125, -9508.5654296875, 0.0, 0.0, -0.07200000435113907, 0.9900000691413879, 0.0820000022649765, 192.0, 0.0, 0.0, 0.0, 0.0, 0.0, 0.0, 0.0, 0.0, 0.0, 1.612537534309471E9, 2021-02-05 10:05:34.309
209.0, 0.0, 0.0, 41493.95703125, 87998.96875, -32039.59375, -10364.3251953125, 0.0, 0.0, -0.07200000435113907, 0.9900000691413879, 0.0820000022649765, 192.0, 0.0, 0.0, 0.0, 0.0, 0.0, 0.0, 0.0, 0.0, 0.0, 1.612537534309472E9, 2021-02-05 10:05:34.309
210.0, 0.0, 0.0, 41557.79296875, 88065.4453125, -31850.474609375, -10837.66796875, 0.0, 0.0, -0.07200000435113907, 0.9900000691413879, 0.0820000022649765, 192.0, 0.0, 0.0, 0.0, 0.0, 0.0, 0.0, 0.0, 0.0, 0.0, 1.61253753430948E9, 2021-02-05 10:05:34.309
211.0, 0.0, 0.0, 41256.58203125, 87740.4921875, -31640.412109375, -10155.0009765625, 0.0, 0.0, -0.07200000435113907, 0.9880000352859497, 0.07800000160932541, 192.0, 253.0, 192.0, 30.0, 224.0, 2.0, 112.0, 0.0, 0.0, 0.0, 1.612537534368725E9, 2021-02-05 10:05:34.368
212.0, 0.0, 0.0, 41104.6796875, 87586.1796875, -31814.15234375, -9479.642578125, 0.0, 0.0, -0.07200000435113907, 0.9880000352859497, 0.07800000160932541, 192.0, 0.0, 0.0, 0.0, 0.0, 0.0, 0.0, 0.0, 0.0, 0.0, 1.612537534368729E9, 2021-02-05 10:05:34.368
213.0, 0.0, 0.0, 41412.953125, 87915.4453125, -32063.353515625, -10179.498046875, 0.0, 0.0, -0.07200000435113907, 0.9880000352859497, 0.07800000160932541, 192.0, 0.0, 0.0, 0.0, 0.0, 0.0, 0.0, 0.0, 0.0, 0.0, 1.61253753436873E9, 2021-02-05 10:05:34.368
214.0, 0.0, 0.0, 41573.70703125, 88085.0, -31917.1953125, -10845.6025390625, 0.0, 0.0, -0.07200000435113907, 0.9880000352859497, 0.07800000160932541, 192.0, 0.0, 0.0, 0.0, 0.0, 0.0, 0.0, 0.0, 0.0, 0.0, 1.612537534368731E9, 2021-02-05 10:05:34.368
215.0, 0.0, 0.0, 41295.00390625, 87786.7890625, -31672.17578125, -10321.07421875, 0.0, 0.0, -0.07200000435113907, 0.9880000352859497, 0.07800000160932541, 192.0, 0.0, 0.0, 0.0, 0.0, 0.0, 0.0, 0.0, 0.0, 0.0, 1.612537534368732E9, 2021-02-05 10:05:34.368
216.0, 0.0, 0.0, 41108.1640625, 87587.9453125, -31760.396484375, -9516.03125, 0.0, 0.0, -0.07200000435113907, 0.9880000352859497, 0.07800000160932541, 192.0, 0.0, 0.0, 0.0, 0.0, 0.0, 0.0, 0.0, 0.0, 0.0, 1.612537534368733E9, 2021-02-05 10:05:34.368
217.0, 0.0, 0.0, 41368.96484375, 87863.3828125, -32035.234375, -10008.8427734375, 0.0, 0.0, -0.07200000435113907, 0.9880000352859497, 0.07800000160932541, 192.0, 0.0, 0.0, 0.0, 0.0, 0.0, 0.0, 0.0, 0.0, 0.0, 1.612537534368734E9, 2021-02-05 10:05:34.368
218.0, 0.0, 0.0, 41566.6875, 88075.34375, -31977.677734375, -10814.533203125, 0.0, 0.0, -0.07200000435113907, 0.9880000352859497, 0.07800000160932541, 192.0, 0.0, 0.0, 0.0, 0.0, 0.0, 0.0, 0.0, 0.0, 0.0, 1.612537534368735E9, 2021-02-05 10:05:34.368
219.0, 0.0, 0.0, 41356.5390625, 87852.6796875, -31706.171875, -10482.3642578125, 0.0, 0.0, -0.07200000435113907, 0.9880000352859497, 0.07800000160932541, 192.0, 0.0, 0.0, 0.0, 0.0, 0.0, 0.0, 0.0, 0.0, 0.0, 1.612537534368736E9, 2021-02-05 10:05:34.368
220.0, 0.0, 0.0, 41092.5625, 87581.3515625, -31724.142578125, -9590.8203125, 0.0, 0.0, -0.07200000435113907, 0.9880000352859497, 0.07800000160932541, 192.0, 0.0, 0.0, 0.0, 0.0, 0.0, 0.0, 0.0, 0.0, 0.0, 1.612537534368737E9, 2021-02-05 10:05:34.368
221.0, 0.0, 0.0, 41290.66796875, 87792.59375, -32011.966796875, -9835.9072265625, 0.0, 0.0, -0.07200000435113907, 0.9880000352859497, 0.0860000029206276, 192.0, 253.0, 192.0, 30.0, 224.0, 2.0, 176.0, 0.0, 0.0, 0.0, 1.612537534368738E9, 2021-02-05 10:05:34.368
222.0, 0.0, 0.0, 41569.86328125, 88088.6015625, -32006.1328125, -10751.9267578125, 0.0, 0.0, -0.07200000435113907, 0.9880000352859497, 0.0860000029206276, 192.0, 0.0, 0.0, 0.0, 0.0, 0.0, 0.0, 0.0, 0.0, 0.0, 1.612537534368739E9, 2021-02-05 10:05:34.368
