%OpenBCI Raw EEG Data
%Number of channels = 8
%Sample Rate = 250 Hz
%Board = OpenBCI_GUI$BoardCytonSerial
Sample Index, EXG Channel 0, EXG Channel 1, EXG Channel 2, EXG Channel 3, EXG Channel 4, EXG Channel 5, EXG Channel 6, EXG Channel 7, Accel Channel 0, Accel Channel 1, Accel Channel 2, Other, Other, Other, Other, Other, Other, Other, Analog Channel 0, Analog Channel 1, Analog Channel 2, Timestamp, Timestamp (Formatted)
0.0, 0.0, 0.0, 0.0, 0.0, 0.0, 0.0, 0.0, 0.0, 0.0, 0.0, 0.0, 192.0, 0.0, 0.0, 0.0, 0.0, 0.0, 0.0, 0.0, 0.0, 0.0, 1.612538111338496E9, 2021-02-05 10:15:11.338
1.0, 0.0, 0.0, 61636.85546875, 88164.9140625, -30857.296875, -2869.114501953125, 0.0, 0.0, -0.10200000554323196, 1.002000093460083, 0.07200000435113907, 192.0, 252.0, 208.0, 31.0, 80.0, 2.0, 64.0, 0.0, 0.0, 0.0, 1.612538111400598E9, 2021-02-05 10:15:11.400
2.0, 0.0, 0.0, 61833.99609375, 88380.984375, -31252.453125, -3241.025146484375, 0.0, 0.0, -0.10200000554323196, 1.002000093460083, 0.07200000435113907, 192.0, 0.0, 0.0, 0.0, 0.0, 0.0, 0.0, 0.0, 0.0, 0.0, 1.6125381114006E9, 2021-02-05 10:15:11.400
3.0, 0.0, 0.0, 62103.0, 88668.1171875, -31435.513671875, -4607.38720703125, 0.0, 0.0, -0.10200000554323196, 1.002000093460083, 0.07200000435113907, 192.0, 0.0, 0.0, 0.0, 0.0, 0.0, 0.0, 0.0, 0.0, 0.0, 1.612538111400601E9, 2021-02-05 10:15:11.400
4.0, 0.0, 0.0, 61935.85546875, 88483.828125, -31089.443359375, -4403.3603515625, 0.0, 0.0, -0.10200000554323196, 1.002000093460083, 0.07200000435113907, 192.0, 0.0, 0.0, 0.0, 0.0, 0.0, 0.0, 0.0, 0.0, 0.0, 1.612538111400602E9, 2021-02-05 10:15:11.400
5.0, 0.0, 0.0, 61644.7890625, 88174.3671875, -30844.802734375, -3046.453369140625, 0.0, 0.0, -0.10200000554323196, 1.002000093460083, 0.07200000435113907, 192.0, 0.0, 0.0, 0.0, 0.0, 0.0, 0.0, 0.0, 0.0, 0.0, 1.612538111400603E9, 2021-02-05 10:15:11.400
6.0, 0.0, 0.0, 61770.49609375, 88315.0234375, -31165.796875, -3035.2998046875, 0.0, 0.0, -0.10200000554323196, 1.002000093460083, 0.07200000435113907, 192.0, 0.0, 0.0, 0.0, 0.0, 0.0, 0.0, 0.0, 0.0, 0.0, 1.612538111400604E9, 2021-02-05 10:15:11.400
7.0, 0.0, 0.0, 62083.84375, 88645.5625, -31442.689453125, -4446.0302734375, 0.0, 0.0, -0.10200000554323196, 1.002000093460083, 0.07200000435113907, 192.0, 0.0, 0.0, 0.0, 0.0, 0.0, 0.0, 0.0, 0.0, 0.0, 1.612538111400605E9, 2021-02-05 10:15:11.400
8.0, 0.0, 0.0, 61983.91015625, 88532.8671875, -31156.072265625, -4576.1171875, 0.0, 0.0, -0.0860000029206276, 0.9900000691413879, 0.07200000435113907, 192.0, 253.0, 80.0, 30.0, 240.0, 2.0, 64.0, 0.0, 0.0, 0.0, 1.612538111400606E9, 2021-02-05 10:15:11.400
9.0, 0.0, 0.0, 61678.05078125, 88205.7734375, -30833.044921875, -3247.88720703125, 0.0, 0.0, -0.0860000029206276, 0.9900000691413879, 0.07200000435113907, 192.0, 0.0, 0.0, 0.0, 0.0, 0.0, 0.0, 0.0, 0.0, 0.0, 1.612538111400607E9, 2021-02-05 10:15:11.400
10.0, 0.0, 0.0, 61723.24609375, 88257.8515625, -31073.125, -2873.920166015625, 0.0, 0.0, -0.0860000029206276, 0.9900000691413879, 0.07200000435113907, 192.0, 0.0, 0.0, 0.0, 0.0, 0.0, 0.0, 0.0, 0.0, 0.0, 1.612538111400621E9, 2021-02-05 10:15:11.400
11.0, 0.0, 0.0, 62014.48828125, 88572.875, -31459.51953125, -4252.32958984375, 0.0, 0.0, -0.0860000029206276, 0.9900000691413879, 0.07200000435113907, 192.0, 0.0, 0.0, 0.0, 0.0, 0.0, 0.0, 0.0, 0.0, 0.0, 1.612538111400622E9, 2021-02-05 10:15:11.400
12.0, 0.0, 0.0, 62035.3203125, 88589.9765625, -31234.416015625, -4705.6904296875, 0.0, 0.0, -0.0860000029206276, 0.9900000691413879, 0.07200000435113907, 192.0, 0.0, 0.0, 0.0, 0.0, 0.0, 0.0, 0.0, 0.0, 0.0, 1.612538111400623E9, 2021-02-05 10:15:11.400
13.0, 0.0, 0.0, 61716.25, 88250.8515625, -30852.044921875, -3487.96728515625, 0.0, 0.0, -0.0860000029206276, 0.9900000691413879, 0.07200000435113907, 192.0, 0.0, 0.0, 0.0, 0.0, 0.0, 0.0, 0.0, 0.0, 0.0, 1.612538111400624E9, 2021-02-05 10:15:11.400
14.0, 0.0, 0.0, 61673.625, 88216.1875, -30996.212890625, -2771.862060546875, 0.0, 0.0, -0.0860000029206276, 0.9900000691413879, 0.07200000435113907, 192.0, 0.0, 0.0, 0.0, 0.0, 0.0, 0.0, 0.0, 0.0, 0.0, 1.612538111400625E9, 2021-02-05 10:15:11.400
15.0, 0.0, 0.0, 62005.27734375, 88562.8828125, -31396.421875, -3987.148681640625, 0.0, 0.0, -0.0860000029206276, 0.9900000691413879, 0.07200000435113907, 192.0, 0.0, 0.0, 0.0, 0.0, 0.0, 0.0, 0.0, 0.0, 0.0, 1.612538111400626E9, 2021-02-05 10:15:11.400
16.0, 0.0, 0.0, 62083.28515625, 88641.5859375, -31288.552734375, -4763.24609375, 0.0, 0.0, -0.0860000029206276, 0.9900000691413879, 0.07200000435113907, 192.0, 0.0, 0.0, 0.0, 0.0, 0.0, 0.0, 0.0, 0.0, 0.0, 1.612538111460842E9, 2021-02-05 10:15:11.460
17.0, 0.0, 0.0, 61762.7421875, 88305.90625, -30895.876953125, -3744.22998046875, 0.0, 0.0, -0.0860000029206276, 0.9900000691413879, 0.07200000435113907, 192.0, 0.0, 0.0, 0.0, 0.0, 0.0, 0.0, 0.0, 0.0, 0.0, 1.612538111460845E9, 2021-02-05 10:15:11.460
18.0, 0.0, 0.0, 61648.79296875, 88189.296875, -30929.806640625, -2743.72119140625, 0.0, 0.0, -0.07800000160932541, 0.984000027179718, 0.07600000500679016, 192.0, 253.0, 144.0, 30.0, 192.0, 2.0, 96.0, 0.0, 0.0, 0.0, 1.612538111460846E9, 2021-02-05 10:15:11.460
19.0, 0.0, 0.0, 61948.6640625, 88511.96875, -31347.13671875, -3718.25732421875, 0.0, 0.0, -0.07800000160932541, 0.984000027179718, 0.07600000500679016, 192.0, 0.0, 0.0, 0.0, 0.0, 0.0, 0.0, 0.0, 0.0, 0.0, 1.612538111460847E9, 2021-02-05 10:15:11.460
20.0, 0.0, 0.0, 62088.98828125, 88657.0546875, -31353.953125, -4761.97216796875, 0.0, 0.0, -0.07800000160932541, 0.984000027179718, 0.07600000500679016, 192.0, 0.0, 0.0, 0.0, 0.0, 0.0, 0.0, 0.0, 0.0, 0.0, 1.612538111460848E9, 2021-02-05 10:15:11.460
21.0, 0.0, 0.0, 61821.546875, 88370.3203125, -30958.484375, -3997.430419921875, 0.0, 0.0, -0.07800000160932541, 0.984000027179718, 0.07600000500679016, 192.0, 0.0, 0.0, 0.0, 0.0, 0.0, 0.0, 0.0, 0.0, 0.0, 1.61253811146085E9, 2021-02-05 10:15:11.460
22.0, 0.0, 0.0, 61621.1640625, 88168.53125, -30885.55078125, -2784.625, 0.0, 0.0, -0.07800000160932541, 0.984000027179718, 0.07600000500679016, 192.0, 0.0, 0.0, 0.0, 0.0, 0.0, 0.0, 0.0, 0.0, 0.0, 1.612538111460851E9, 2021-02-05 10:15:11.460
23.0, 0.0, 0.0, 61881.5390625, 88446.5859375, -31294.966796875, -3446.3037109375, 0.0, 0.0, -0.07800000160932541, 0.984000027179718, 0.07600000500679016, 192.0, 0.0, 0.0, 0.0, 0.0, 0.0, 0.0, 0.0, 0.0, 0.0, 1.612538111460852E9, 2021-02-05 10:15:11.460
24.0, 0.0, 0.0, 62105.3046875, 88677.6171875, -31397.896484375, -4702.8291015625, 0.0, 0.0, -0.07800000160932541, 0.984000027179718, 0.07600000500679016, 192.0, 0.0, 0.0, 0.0, 0.0, 0.0, 0.0, 0.0, 0.0, 0.0, 1.61253811146086E9, 2021-02-05 10:15:11.460
25.0, 0.0, 0.0, 61894.34765625, 88445.3828125, -31011.009765625, -4242.4951171875, 0.0, 0.0, -0.07800000160932541, 0.984000027179718, 0.07600000500679016, 192.0, 0.0, 0.0, 0.0, 0.0, 0.0, 0.0, 0.0, 0.0, 0.0, 1.612538111460861E9, 2021-02-05 10:15:11.460
26.0, 0.0, 0.0, 61625.41015625, 88168.421875, -30840.2421875, -2901.14453125, 0.0, 0.0, -0.07800000160932541, 0.984000027179718, 0.07600000500679016, 192.0, 0.0, 0.0, 0.0, 0.0, 0.0, 0.0, 0.0, 0.0, 0.0, 1.612538111460862E9, 2021-02-05 10:15:11.460
27.0, 0.0, 0.0, 61824.54296875, 88382.0546875, -31213.94140625, -3203.384765625, 0.0, 0.0, -0.07800000160932541, 0.984000027179718, 0.07600000500679016, 192.0, 0.0, 0.0, 0.0, 0.0, 0.0, 0.0, 0.0, 0.0, 0.0, 1.612538111460863E9, 2021-02-05 10:15:11.460
28.0, 0.0, 0.0, 62107.58203125, 88679.40625, -31415.689453125, -4589.953125, 0.0, 0.0, -0.07800000160932541, 0.9960000514984131, 0.0860000029206276, 192.0, 253.0, 144.0, 31.0, 32.0, 2.0, 176.0, 0.0, 0.0, 0.0, 1.612538111460864E9, 2021-02-05 10:15:11.460
29.0, 0.0, 0.0, 61945.7578125, 88504.3671875, -31088.080078125, -4450.92529296875, 0.0, 0.0, -0.07800000160932541, 0.9960000514984131, 0.0860000029206276, 192.0, 0.0, 0.0, 0.0, 0.0, 0.0, 0.0, 0.0, 0.0, 0.0, 1.612538111460865E9, 2021-02-05 10:15:11.460
30.0, 0.0, 0.0, 61649.328125, 88193.140625, -30827.345703125, -3091.514404296875, 0.0, 0.0, -0.07800000160932541, 0.9960000514984131, 0.0860000029206276, 192.0, 0.0, 0.0, 0.0, 0.0, 0.0, 0.0, 0.0, 0.0, 0.0, 1.612538111460866E9, 2021-02-05 10:15:11.460
31.0, 0.0, 0.0, 61750.55859375, 88305.125, -31141.052734375, -3004.543701171875, 0.0, 0.0, -0.07800000160932541, 0.9960000514984131, 0.0860000029206276, 192.0, 0.0, 0.0, 0.0, 0.0, 0.0, 0.0, 0.0, 0.0, 0.0, 1.612538111520256E9, 2021-02-05 10:15:11.520
32.0, 0.0, 0.0, 62069.921875, 88647.1953125, -31434.30859375, -4423.0078125, 0.0, 0.0, -0.07800000160932541, 0.9960000514984131, 0.0860000029206276, 192.0, 0.0, 0.0, 0.0, 0.0, 0.0, 0.0, 0.0, 0.0, 0.0, 1.61253811152026E9, 2021-02-05 10:15:11.520
33.0, 0.0, 0.0, 61993.5234375, 88563.6015625, -31167.181640625, -4621.96044921875, 0.0, 0.0, -0.07800000160932541, 0.9960000514984131, 0.0860000029206276, 192.0, 0.0, 0.0, 0.0, 0.0, 0.0, 0.0, 0.0, 0.0, 0.0, 1.612538111520261E9, 2021-02-05 10:15:11.520
34.0, 0.0, 0.0, 61680.5546875, 88228.28125, -30839.349609375, -3316.909423828125, 0.0, 0.0, -0.07800000160932541, 0.9960000514984131, 0.0860000029206276, 192.0, 0.0, 0.0, 0.0, 0.0, 0.0, 0.0, 0.0, 0.0, 0.0, 1.612538111520262E9, 2021-02-05 10:15:11.520
35.0, 0.0, 0.0, 61699.88671875, 88251.546875, -31063.08984375, -2860.307861328125, 0.0, 0.0, -0.07800000160932541, 0.9960000514984131, 0.0860000029206276, 192.0, 0.0, 0.0, 0.0, 0.0, 0.0, 0.0, 0.0, 0.0, 0.0, 1.612538111520263E9, 2021-02-05 10:15:11.520
36.0, 0.0, 0.0, 62028.90625, 88598.3984375, -31433.927734375, -4197.41162109375, 0.0, 0.0, -0.07800000160932541, 0.9960000514984131, 0.0860000029206276, 192.0, 0.0, 0.0, 0.0, 0.0, 0.0, 0.0, 0.0, 0.0, 0.0, 1.612538111520264E9, 2021-02-05 10:15:11.520
37.0, 0.0, 0.0, 62036.01171875, 88605.7578125, -31245.63671875, -4740.0673828125, 0.0, 0.0, -0.07800000160932541, 0.9960000514984131, 0.0860000029206276, 192.0, 0.0, 0.0, 0.0, 0.0, 0.0, 0.0, 0.0, 0.0, 0.0, 1.612538111520265E9, 2021-02-05 10:15:11.520
38.0, 0.0, 0.0, 61709.38671875, 88261.3359375, -30873.033203125, -3567.472412109375, 0.0, 0.0, -0.07800000160932541, 0.9960000514984131, 0.0860000029206276, 192.0, 0.0, 0.0, 0.0, 0.0, 0.0, 0.0, 0.0, 0.0, 0.0, 1.612538111520266E9, 2021-02-05 10:15:11.520
39.0, 0.0, 0.0, 61643.515625, 88193.6328125, -30999.923828125, -2773.963134765625, 0.0, 0.0, -0.07400000095367432, 0.9880000352859497, 0.08000000566244125, 192.0, 253.0, 176.0, 30.0, 224.0, 2.0, 128.0, 0.0, 0.0, 0.0, 1.612538111520268E9, 2021-02-05 10:15:11.520
40.0, 0.0, 0.0, 61966.921875, 88537.9140625, -31408.759765625, -3939.91943359375, 0.0, 0.0, -0.07400000095367432, 0.9880000352859497, 0.08000000566244125, 192.0, 0.0, 0.0, 0.0, 0.0, 0.0, 0.0, 0.0, 0.0, 0.0, 1.612538111520269E9, 2021-02-05 10:15:11.520
41.0, 0.0, 0.0, 62083.51171875, 88655.796875, -31314.7265625, -4796.66162109375, 0.0, 0.0, -0.07400000095367432, 0.9880000352859497, 0.08000000566244125, 192.0, 0.0, 0.0, 0.0, 0.0, 0.0, 0.0, 0.0, 0.0, 0.0, 1.61253811152027E9, 2021-02-05 10:15:11.520
42.0, 0.0, 0.0, 61768.86328125, 88320.546875, -30910.337890625, -3821.6787109375, 0.0, 0.0, -0.07400000095367432, 0.9880000352859497, 0.08000000566244125, 192.0, 0.0, 0.0, 0.0, 0.0, 0.0, 0.0, 0.0, 0.0, 0.0, 1.612538111520271E9, 2021-02-05 10:15:11.520
43.0, 0.0, 0.0, 61625.79296875, 88174.1875, -30929.42578125, -2756.685302734375, 0.0, 0.0, -0.07400000095367432, 0.9880000352859497, 0.08000000566244125, 192.0, 0.0, 0.0, 0.0, 0.0, 0.0, 0.0, 0.0, 0.0, 0.0, 1.612538111520272E9, 2021-02-05 10:15:11.520
44.0, 0.0, 0.0, 61920.5, 88492.9453125, -31351.0703125, -3677.5546875, 0.0, 0.0, -0.07400000095367432, 0.9880000352859497, 0.08000000566244125, 192.0, 0.0, 0.0, 0.0, 0.0, 0.0, 0.0, 0.0, 0.0, 0.0, 1.612538111520273E9, 2021-02-05 10:15:11.520
45.0, 0.0, 0.0, 62088.98828125, 88667.671875, -31367.7890625, -4775.8076171875, 0.0, 0.0, -0.07400000095367432, 0.9880000352859497, 0.08000000566244125, 192.0, 0.0, 0.0, 0.0, 0.0, 0.0, 0.0, 0.0, 0.0, 0.0, 1.612538111520274E9, 2021-02-05 10:15:11.520
46.0, 0.0, 0.0, 61832.09765625, 88387.828125, -30965.568359375, -4065.29052734375, 0.0, 0.0, -0.07400000095367432, 0.9880000352859497, 0.08000000566244125, 192.0, 0.0, 0.0, 0.0, 0.0, 0.0, 0.0, 0.0, 0.0, 0.0, 1.61253811158079E9, 2021-02-05 10:15:11.580
47.0, 0.0, 0.0, 61608.73828125, 88150.3125, -30878.642578125, -2814.5986328125, 0.0, 0.0, -0.07400000095367432, 0.9880000352859497, 0.08000000566244125, 192.0, 0.0, 0.0, 0.0, 0.0, 0.0, 0.0, 0.0, 0.0, 0.0, 1.612538111580799E9, 2021-02-05 10:15:11.580
48.0, 0.0, 0.0, 61856.41796875, 88419.203125, -31293.201171875, -3410.630126953125, 0.0, 0.0, -0.07400000095367432, 0.9880000352859497, 0.08000000566244125, 192.0, 0.0, 0.0, 0.0, 0.0, 0.0, 0.0, 0.0, 0.0, 0.0, 1.6125381115808E9, 2021-02-05 10:15:11.580
49.0, 0.0, 0.0, 62104.609375, 88676.5390625, -31406.45703125, -4695.56494140625, 0.0, 0.0, -0.07800000160932541, 0.9880000352859497, 0.08400000631809235, 192.0, 253.0, 144.0, 30.0, 224.0, 2.0, 160.0, 0.0, 0.0, 0.0, 1.612538111580801E9, 2021-02-05 10:15:11.580
50.0, 0.0, 0.0, 61905.859375, 88465.140625, -31028.69140625, -4302.2861328125, 0.0, 0.0, -0.07800000160932541, 0.9880000352859497, 0.08400000631809235, 192.0, 0.0, 0.0, 0.0, 0.0, 0.0, 0.0, 0.0, 0.0, 0.0, 1.612538111580802E9, 2021-02-05 10:15:11.580
51.0, 0.0, 0.0, 61625.25390625, 88176.265625, -30840.376953125, -2947.278564453125, 0.0, 0.0, -0.07800000160932541, 0.9880000352859497, 0.08400000631809235, 192.0, 0.0, 0.0, 0.0, 0.0, 0.0, 0.0, 0.0, 0.0, 0.0, 1.612538111580803E9, 2021-02-05 10:15:11.580
52.0, 0.0, 0.0, 61808.6953125, 88369.828125, -31203.32421875, -3167.979736328125, 0.0, 0.0, -0.07800000160932541, 0.9880000352859497, 0.08400000631809235, 192.0, 0.0, 0.0, 0.0, 0.0, 0.0, 0.0, 0.0, 0.0, 0.0, 1.612538111580804E9, 2021-02-05 10:15:11.580
53.0, 0.0, 0.0, 62094.05859375, 88672.4765625, -31427.892578125, -4567.3330078125, 0.0, 0.0, -0.07800000160932541, 0.9880000352859497, 0.08400000631809235, 192.0, 0.0, 0.0, 0.0, 0.0, 0.0, 0.0, 0.0, 0.0, 0.0, 1.612538111580805E9, 2021-02-05 10:15:11.580
54.0, 0.0, 0.0, 61954.8984375, 88520.1953125, -31105.625, -4497.5283203125, 0.0, 0.0, -0.07800000160932541, 0.9880000352859497, 0.08400000631809235, 192.0, 0.0, 0.0, 0.0, 0.0, 0.0, 0.0, 0.0, 0.0, 0.0, 1.612538111580806E9, 2021-02-05 10:15:11.580
55.0, 0.0, 0.0, 61638.91015625, 88190.125, -30834.654296875, -3133.580322265625, 0.0, 0.0, -0.07800000160932541, 0.9880000352859497, 0.08400000631809235, 192.0, 0.0, 0.0, 0.0, 0.0, 0.0, 0.0, 0.0, 0.0, 0.0, 1.612538111580807E9, 2021-02-05 10:15:11.580
56.0, 0.0, 0.0, 61730.64453125, 88287.21875, -31132.08984375, -2965.22705078125, 0.0, 0.0, -0.07800000160932541, 0.9880000352859497, 0.08400000631809235, 192.0, 0.0, 0.0, 0.0, 0.0, 0.0, 0.0, 0.0, 0.0, 0.0, 1.612538111580808E9, 2021-02-05 10:15:11.580
57.0, 0.0, 0.0, 62071.08203125, 88640.5078125, -31432.609375, -4375.7783203125, 0.0, 0.0, -0.07800000160932541, 0.9880000352859497, 0.08400000631809235, 192.0, 0.0, 0.0, 0.0, 0.0, 0.0, 0.0, 0.0, 0.0, 0.0, 1.612538111580809E9, 2021-02-05 10:15:11.580
58.0, 0.0, 0.0, 62014.64453125, 88578.953125, -31174.22265625, -4655.041015625, 0.0, 0.0, -0.07800000160932541, 0.9880000352859497, 0.08400000631809235, 192.0, 0.0, 0.0, 0.0, 0.0, 0.0, 0.0, 0.0, 0.0, 0.0, 1.61253811158081E9, 2021-02-05 10:15:11.580
59.0, 0.0, 0.0, 61684.28515625, 88229.5546875, -30837.337890625, -3365.904296875, 0.0, 0.0, -0.07400000095367432, 0.9860000610351562, 0.08400000631809235, 192.0, 253.0, 176.0, 30.0, 208.0, 2.0, 160.0, 0.0, 0.0, 0.0, 1.612538111580811E9, 2021-02-05 10:15:11.580
60.0, 0.0, 0.0, 61688.66796875, 88238.671875, -31042.927734375, -2831.0048828125, 0.0, 0.0, -0.07400000095367432, 0.9860000610351562, 0.08400000631809235, 192.0, 0.0, 0.0, 0.0, 0.0, 0.0, 0.0, 0.0, 0.0, 0.0, 1.612538111580812E9, 2021-02-05 10:15:11.580
61.0, 0.0, 0.0, 62021.953125, 88587.8515625, -31419.755859375, -4146.67333984375, 0.0, 0.0, -0.07400000095367432, 0.9860000610351562, 0.08400000631809235, 192.0, 0.0, 0.0, 0.0, 0.0, 0.0, 0.0, 0.0, 0.0, 0.0, 1.612538111641071E9, 2021-02-05 10:15:11.641
62.0, 0.0, 0.0, 62031.5859375, 88602.828125, -31259.5625, -4743.12939453125, 0.0, 0.0, -0.07400000095367432, 0.9860000610351562, 0.08400000631809235, 192.0, 0.0, 0.0, 0.0, 0.0, 0.0, 0.0, 0.0, 0.0, 0.0, 1.612538111641073E9, 2021-02-05 10:15:11.641
63.0, 0.0, 0.0, 61713.453125, 88266.8984375, -30873.927734375, -3611.416015625, 0.0, 0.0, -0.07400000095367432, 0.9860000610351562, 0.08400000631809235, 192.0, 0.0, 0.0, 0.0, 0.0, 0.0, 0.0, 0.0, 0.0, 0.0, 1.612538111641074E9, 2021-02-05 10:15:11.641
64.0, 0.0, 0.0, 61633.0546875, 88183.796875, -30971.693359375, -2759.769775390625, 0.0, 0.0, -0.07400000095367432, 0.9860000610351562, 0.08400000631809235, 192.0, 0.0, 0.0, 0.0, 0.0, 0.0, 0.0, 0.0, 0.0, 0.0, 1.612538111641075E9, 2021-02-05 10:15:11.641
65.0, 0.0, 0.0, 61970.65625, 88538.6796875, -31377.1328125, -3891.528076171875, 0.0, 0.0, -0.07400000095367432, 0.9860000610351562, 0.08400000631809235, 192.0, 0.0, 0.0, 0.0, 0.0, 0.0, 0.0, 0.0, 0.0, 0.0, 1.612538111641077E9, 2021-02-05 10:15:11.641
66.0, 0.0, 0.0, 62077.36328125, 88651.1484375, -31305.830078125, -4796.013671875, 0.0, 0.0, -0.07400000095367432, 0.9860000610351562, 0.08400000631809235, 192.0, 0.0, 0.0, 0.0, 0.0, 0.0, 0.0, 0.0, 0.0, 0.0, 1.612538111641078E9, 2021-02-05 10:15:11.641
67.0, 0.0, 0.0, 61770.51953125, 88318.6484375, -30912.931640625, -3865.242431640625, 0.0, 0.0, -0.07400000095367432, 0.9860000610351562, 0.08400000631809235, 192.0, 0.0, 0.0, 0.0, 0.0, 0.0, 0.0, 0.0, 0.0, 0.0, 1.612538111641079E9, 2021-02-05 10:15:11.641
68.0, 0.0, 0.0, 61620.515625, 88160.3984375, -30905.666015625, -2765.53662109375, 0.0, 0.0, -0.07400000095367432, 0.9860000610351562, 0.08400000631809235, 192.0, 0.0, 0.0, 0.0, 0.0, 0.0, 0.0, 0.0, 0.0, 0.0, 1.61253811164108E9, 2021-02-05 10:15:11.641
69.0, 0.0, 0.0, 61898.01171875, 88462.4765625, -31329.1875, -3621.854248046875, 0.0, 0.0, -0.07000000029802322, 0.9980000257492065, 0.0820000022649765, 192.0, 253.0, 208.0, 31.0, 48.0, 2.0, 144.0, 0.0, 0.0, 0.0, 1.612538111641081E9, 2021-02-05 10:15:11.641
70.0, 0.0, 0.0, 62088.0703125, 88658.234375, -31367.923828125, -4769.7724609375, 0.0, 0.0, -0.07000000029802322, 0.9980000257492065, 0.0820000022649765, 192.0, 0.0, 0.0, 0.0, 0.0, 0.0, 0.0, 0.0, 0.0, 0.0, 1.612538111641086E9, 2021-02-05 10:15:11.641
71.0, 0.0, 0.0, 61830.33203125, 88381.390625, -30968.140625, -4116.1630859375, 0.0, 0.0, -0.07000000029802322, 0.9980000257492065, 0.0820000022649765, 192.0, 0.0, 0.0, 0.0, 0.0, 0.0, 0.0, 0.0, 0.0, 0.0, 1.612538111641087E9, 2021-02-05 10:15:11.641
72.0, 0.0, 0.0, 61601.80859375, 88150.3828125, -30859.017578125, -2833.59765625, 0.0, 0.0, -0.07000000029802322, 0.9980000257492065, 0.0820000022649765, 192.0, 0.0, 0.0, 0.0, 0.0, 0.0, 0.0, 0.0, 0.0, 0.0, 1.612538111641089E9, 2021-02-05 10:15:11.641
73.0, 0.0, 0.0, 61838.3125, 88397.8125, -31258.154296875, -3354.572021484375, 0.0, 0.0, -0.07000000029802322, 0.9980000257492065, 0.0820000022649765, 192.0, 0.0, 0.0, 0.0, 0.0, 0.0, 0.0, 0.0, 0.0, 0.0, 1.61253811164109E9, 2021-02-05 10:15:11.641
74.0, 0.0, 0.0, 62073.09375, 88643.8671875, -31415.912109375, -4673.056640625, 0.0, 0.0, -0.07000000029802322, 0.9980000257492065, 0.0820000022649765, 192.0, 0.0, 0.0, 0.0, 0.0, 0.0, 0.0, 0.0, 0.0, 0.0, 1.612538111641091E9, 2021-02-05 10:15:11.641
75.0, 0.0, 0.0, 61888.6015625, 88443.96875, -31049.03125, -4348.0400390625, 0.0, 0.0, -0.07000000029802322, 0.9980000257492065, 0.0820000022649765, 192.0, 0.0, 0.0, 0.0, 0.0, 0.0, 0.0, 0.0, 0.0, 0.0, 1.612538111641092E9, 2021-02-05 10:15:11.641
76.0, 0.0, 0.0, 61605.40625, 88149.46875, -30845.451171875, -2989.03173828125, 0.0, 0.0, -0.07000000029802322, 0.9980000257492065, 0.0820000022649765, 192.0, 0.0, 0.0, 0.0, 0.0, 0.0, 0.0, 0.0, 0.0, 0.0, 1.612538111700353E9, 2021-02-05 10:15:11.700
77.0, 0.0, 0.0, 61770.453125, 88329.8203125, -31184.080078125, -3132.619140625, 0.0, 0.0, -0.07000000029802322, 0.9980000257492065, 0.0820000022649765, 192.0, 0.0, 0.0, 0.0, 0.0, 0.0, 0.0, 0.0, 0.0, 0.0, 1.612538111700356E9, 2021-02-05 10:15:11.700
78.0, 0.0, 0.0, 62062.4765625, 88636.3984375, -31427.892578125, -4542.1201171875, 0.0, 0.0, -0.07000000029802322, 0.9980000257492065, 0.0820000022649765, 192.0, 0.0, 0.0, 0.0, 0.0, 0.0, 0.0, 0.0, 0.0, 0.0, 1.612538111700357E9, 2021-02-05 10:15:11.700
79.0, 0.0, 0.0, 61939.69921875, 88501.6640625, -31119.974609375, -4546.68017578125, 0.0, 0.0, -0.06599999964237213, 0.9880000352859497, 0.07800000160932541, 192.0, 253.0, 240.0, 30.0, 224.0, 2.0, 112.0, 0.0, 0.0, 0.0, 1.612538111700358E9, 2021-02-05 10:15:11.700
80.0, 0.0, 0.0, 61626.68359375, 88169.15625, -30831.97265625, -3185.235107421875, 0.0, 0.0, -0.06599999964237213, 0.9880000352859497, 0.07800000160932541, 192.0, 0.0, 0.0, 0.0, 0.0, 0.0, 0.0, 0.0, 0.0, 0.0, 1.612538111700359E9, 2021-02-05 10:15:11.700
81.0, 0.0, 0.0, 61701.00390625, 88250.3203125, -31108.93359375, -2936.61669921875, 0.0, 0.0, -0.06599999964237213, 0.9880000352859497, 0.07800000160932541, 192.0, 0.0, 0.0, 0.0, 0.0, 0.0, 0.0, 0.0, 0.0, 0.0, 1.61253811170036E9, 2021-02-05 10:15:11.700
82.0, 0.0, 0.0, 62025.62109375, 88597.078125, -31444.8359375, -4337.6015625, 0.0, 0.0, -0.06599999964237213, 0.9880000352859497, 0.07800000160932541, 192.0, 0.0, 0.0, 0.0, 0.0, 0.0, 0.0, 0.0, 0.0, 0.0, 1.612538111700361E9, 2021-02-05 10:15:11.700
83.0, 0.0, 0.0, 61991.04296875, 88562.03125, -31215.439453125, -4695.69921875, 0.0, 0.0, -0.06599999964237213, 0.9880000352859497, 0.07800000160932541, 192.0, 0.0, 0.0, 0.0, 0.0, 0.0, 0.0, 0.0, 0.0, 0.0, 1.612538111700363E9, 2021-02-05 10:15:11.700
84.0, 0.0, 0.0, 61671.43359375, 88221.84375, -30854.7265625, -3425.918701171875, 0.0, 0.0, -0.06599999964237213, 0.9880000352859497, 0.07800000160932541, 192.0, 0.0, 0.0, 0.0, 0.0, 0.0, 0.0, 0.0, 0.0, 0.0, 1.612538111700364E9, 2021-02-05 10:15:11.700
85.0, 0.0, 0.0, 61667.1875, 88222.625, -31032.22265625, -2830.557861328125, 0.0, 0.0, -0.06599999964237213, 0.9880000352859497, 0.07800000160932541, 192.0, 0.0, 0.0, 0.0, 0.0, 0.0, 0.0, 0.0, 0.0, 0.0, 1.612538111700365E9, 2021-02-05 10:15:11.700
86.0, 0.0, 0.0, 61998.70703125, 88575.2421875, -31419.9140625, -4115.42529296875, 0.0, 0.0, -0.06599999964237213, 0.9880000352859497, 0.07800000160932541, 192.0, 0.0, 0.0, 0.0, 0.0, 0.0, 0.0, 0.0, 0.0, 0.0, 1.612538111700366E9, 2021-02-05 10:15:11.700
87.0, 0.0, 0.0, 62029.1953125, 88600.1640625, -31285.6015625, -4776.3662109375, 0.0, 0.0, -0.06599999964237213, 0.9880000352859497, 0.07800000160932541, 192.0, 0.0, 0.0, 0.0, 0.0, 0.0, 0.0, 0.0, 0.0, 0.0, 1.612538111700367E9, 2021-02-05 10:15:11.700
88.0, 0.0, 0.0, 61709.65625, 88263.59375, -30895.83203125, -3676.5712890625, 0.0, 0.0, -0.06599999964237213, 0.9880000352859497, 0.07800000160932541, 192.0, 0.0, 0.0, 0.0, 0.0, 0.0, 0.0, 0.0, 0.0, 0.0, 1.612538111700368E9, 2021-02-05 10:15:11.700
89.0, 0.0, 0.0, 61624.44921875, 88175.59375, -30965.837890625, -2773.6279296875, 0.0, 0.0, -0.06599999964237213, 0.9880000352859497, 0.07800000160932541, 192.0, 0.0, 0.0, 0.0, 0.0, 0.0, 0.0, 0.0, 0.0, 0.0, 1.612538111700369E9, 2021-02-05 10:15:11.700
90.0, 0.0, 0.0, 61931.875, 88498.8203125, -31387.81640625, -3852.2783203125, 0.0, 0.0, -0.06800000369548798, 0.9920000433921814, 0.09000000357627869, 192.0, 253.0, 224.0, 31.0, 0.0, 2.0, 208.0, 0.0, 0.0, 0.0, 1.61253811170037E9, 2021-02-05 10:15:11.700
91.0, 0.0, 0.0, 62052.80078125, 88630.6796875, -31348.857421875, -4808.1728515625, 0.0, 0.0, -0.06800000369548798, 0.9920000433921814, 0.09000000357627869, 192.0, 0.0, 0.0, 0.0, 0.0, 0.0, 0.0, 0.0, 0.0, 0.0, 1.612538111760144E9, 2021-02-05 10:15:11.760
92.0, 0.0, 0.0, 61762.515625, 88320.75, -30947.44140625, -3939.405517578125, 0.0, 0.0, -0.06800000369548798, 0.9920000433921814, 0.09000000357627869, 192.0, 0.0, 0.0, 0.0, 0.0, 0.0, 0.0, 0.0, 0.0, 0.0, 1.612538111760146E9, 2021-02-05 10:15:11.760
93.0, 0.0, 0.0, 61598.8125, 88144.4609375, -30911.544921875, -2787.32958984375, 0.0, 0.0, -0.06800000369548798, 0.9920000433921814, 0.09000000357627869, 192.0, 0.0, 0.0, 0.0, 0.0, 0.0, 0.0, 0.0, 0.0, 0.0, 1.612538111760148E9, 2021-02-05 10:15:11.760
94.0, 0.0, 0.0, 61879.7734375, 88446.453125, -31324.158203125, -3574.2001953125, 0.0, 0.0, -0.06800000369548798, 0.9920000433921814, 0.09000000357627869, 192.0, 0.0, 0.0, 0.0, 0.0, 0.0, 0.0, 0.0, 0.0, 0.0, 1.612538111760175E9, 2021-02-05 10:15:11.760
95.0, 0.0, 0.0, 62082.1015625, 88659.84375, -31393.58203125, -4770.95751953125, 0.0, 0.0, -0.06800000369548798, 0.9920000433921814, 0.09000000357627869, 192.0, 0.0, 0.0, 0.0, 0.0, 0.0, 0.0, 0.0, 0.0, 0.0, 1.612538111760176E9, 2021-02-05 10:15:11.760
96.0, 0.0, 0.0, 61842.24609375, 88404.6328125, -30998.158203125, -4188.60498046875, 0.0, 0.0, -0.06800000369548798, 0.9920000433921814, 0.09000000357627869, 192.0, 0.0, 0.0, 0.0, 0.0, 0.0, 0.0, 0.0, 0.0, 0.0, 1.612538111760177E9, 2021-02-05 10:15:11.760
97.0, 0.0, 0.0, 61586.67578125, 88137.578125, -30866.013671875, -2870.634521484375, 0.0, 0.0, -0.06800000369548798, 0.9920000433921814, 0.09000000357627869, 192.0, 0.0, 0.0, 0.0, 0.0, 0.0, 0.0, 0.0, 0.0, 0.0, 1.612538111760178E9, 2021-02-05 10:15:11.760
98.0, 0.0, 0.0, 61823.6953125, 88386.7734375, -31259.896484375, -3307.722900390625, 0.0, 0.0, -0.06800000369548798, 0.9920000433921814, 0.09000000357627869, 192.0, 0.0, 0.0, 0.0, 0.0, 0.0, 0.0, 0.0, 0.0, 0.0, 1.612538111760179E9, 2021-02-05 10:15:11.760
99.0, 0.0, 0.0, 62094.84375, 88677.9921875, -31423.01953125, -4663.60205078125, 0.0, 0.0, -0.06800000369548798, 0.9920000433921814, 0.09000000357627869, 192.0, 0.0, 0.0, 0.0, 0.0, 0.0, 0.0, 0.0, 0.0, 0.0, 1.61253811176018E9, 2021-02-05 10:15:11.760
100.0, 0.0, 0.0, 61904.60546875, 88481.3203125, -31060.408203125, -4405.841796875, 0.0, 0.0, -0.06200000271201134, 0.9960000514984131, 0.09400000423192978, 192.0, 254.0, 16.0, 31.0, 32.0, 2.0, 240.0, 0.0, 0.0, 0.0, 1.612538111760182E9, 2021-02-05 10:15:11.760
101.0, 0.0, 0.0, 61602.8125, 88162.7421875, -30836.130859375, -3026.962646484375, 0.0, 0.0, -0.06200000271201134, 0.9960000514984131, 0.09400000423192978, 192.0, 0.0, 0.0, 0.0, 0.0, 0.0, 0.0, 0.0, 0.0, 0.0, 1.612538111760183E9, 2021-02-05 10:15:11.760
102.0, 0.0, 0.0, 61754.203125, 88323.765625, -31177.978515625, -3080.94189453125, 0.0, 0.0, -0.06200000271201134, 0.9960000514984131, 0.09400000423192978, 192.0, 0.0, 0.0, 0.0, 0.0, 0.0, 0.0, 0.0, 0.0, 0.0, 1.612538111760184E9, 2021-02-05 10:15:11.760
103.0, 0.0, 0.0, 62071.23828125, 88653.9453125, -31435.849609375, -4505.150390625, 0.0, 0.0, -0.06200000271201134, 0.9960000514984131, 0.09400000423192978, 192.0, 0.0, 0.0, 0.0, 0.0, 0.0, 0.0, 0.0, 0.0, 0.0, 1.612538111760185E9, 2021-02-05 10:15:11.760
104.0, 0.0, 0.0, 61963.66015625, 88539.4140625, -31135.107421875, -4585.7060546875, 0.0, 0.0, -0.06200000271201134, 0.9960000514984131, 0.09400000423192978, 192.0, 0.0, 0.0, 0.0, 0.0, 0.0, 0.0, 0.0, 0.0, 0.0, 1.612538111760186E9, 2021-02-05 10:15:11.760
105.0, 0.0, 0.0, 61639.87109375, 88198.1015625, -30834.498046875, -3239.08056640625, 0.0, 0.0, -0.06200000271201134, 0.9960000514984131, 0.09400000423192978, 192.0, 0.0, 0.0, 0.0, 0.0, 0.0, 0.0, 0.0, 0.0, 0.0, 1.612538111760187E9, 2021-02-05 10:15:11.760
106.0, 0.0, 0.0, 61695.4609375, 88263.703125, -31094.94140625, -2910.82275390625, 0.0, 0.0, -0.06200000271201134, 0.9960000514984131, 0.09400000423192978, 192.0, 0.0, 0.0, 0.0, 0.0, 0.0, 0.0, 0.0, 0.0, 0.0, 1.612538111820591E9, 2021-02-05 10:15:11.820
107.0, 0.0, 0.0, 62026.0, 88615.4296875, -31437.4140625, -4290.17138671875, 0.0, 0.0, -0.06200000271201134, 0.9960000514984131, 0.09400000423192978, 192.0, 0.0, 0.0, 0.0, 0.0, 0.0, 0.0, 0.0, 0.0, 0.0, 1.612538111820597E9, 2021-02-05 10:15:11.820
108.0, 0.0, 0.0, 62003.4921875, 88583.6015625, -31228.560546875, -4707.4560546875, 0.0, 0.0, -0.06200000271201134, 0.9960000514984131, 0.09400000423192978, 192.0, 0.0, 0.0, 0.0, 0.0, 0.0, 0.0, 0.0, 0.0, 0.0, 1.612538111820599E9, 2021-02-05 10:15:11.820
109.0, 0.0, 0.0, 61667.1875, 88222.1328125, -30872.18359375, -3467.917724609375, 0.0, 0.0, -0.06200000271201134, 0.9960000514984131, 0.09400000423192978, 192.0, 0.0, 0.0, 0.0, 0.0, 0.0, 0.0, 0.0, 0.0, 0.0, 1.612538111820601E9, 2021-02-05 10:15:11.820
110.0, 0.0, 0.0, 61640.1875, 88201.5234375, -31032.580078125, -2793.275146484375, 0.0, 0.0, -0.06000000238418579, 0.9880000352859497, 0.09200000762939453, 192.0, 254.0, 32.0, 30.0, 224.0, 2.0, 224.0, 0.0, 0.0, 0.0, 1.612538111820604E9, 2021-02-05 10:15:11.820
111.0, 0.0, 0.0, 61980.40234375, 88565.390625, -31425.58984375, -4043.1845703125, 0.0, 0.0, -0.06000000238418579, 0.9880000352859497, 0.09200000762939453, 192.0, 0.0, 0.0, 0.0, 0.0, 0.0, 0.0, 0.0, 0.0, 0.0, 1.612538111820606E9, 2021-02-05 10:15:11.820
112.0, 0.0, 0.0, 62038.96484375, 88622.0234375, -31303.55078125, -4774.33251953125, 0.0, 0.0, -0.06000000238418579, 0.9880000352859497, 0.09200000762939453, 192.0, 0.0, 0.0, 0.0, 0.0, 0.0, 0.0, 0.0, 0.0, 0.0, 1.612538111820609E9, 2021-02-05 10:15:11.820
113.0, 0.0, 0.0, 61725.16796875, 88283.375, -30907.65625, -3720.313720703125, 0.0, 0.0, -0.06000000238418579, 0.9880000352859497, 0.09200000762939453, 192.0, 0.0, 0.0, 0.0, 0.0, 0.0, 0.0, 0.0, 0.0, 0.0, 1.612538111820611E9, 2021-02-05 10:15:11.820
114.0, 0.0, 0.0, 61612.08984375, 88166.6953125, -30961.658203125, -2757.13232421875, 0.0, 0.0, -0.06000000238418579, 0.9880000352859497, 0.09200000762939453, 192.0, 0.0, 0.0, 0.0, 0.0, 0.0, 0.0, 0.0, 0.0, 0.0, 1.612538111820613E9, 2021-02-05 10:15:11.820
115.0, 0.0, 0.0, 61920.8125, 88490.3515625, -31386.228515625, -3780.484619140625, 0.0, 0.0, -0.06000000238418579, 0.9880000352859497, 0.09200000762939453, 192.0, 0.0, 0.0, 0.0, 0.0, 0.0, 0.0, 0.0, 0.0, 0.0, 1.612538111820616E9, 2021-02-05 10:15:11.820
116.0, 0.0, 0.0, 62068.890625, 88651.3515625, -31362.939453125, -4802.49560546875, 0.0, 0.0, -0.06000000238418579, 0.9880000352859497, 0.09200000762939453, 192.0, 0.0, 0.0, 0.0, 0.0, 0.0, 0.0, 0.0, 0.0, 0.0, 1.612538111820618E9, 2021-02-05 10:15:11.820
117.0, 0.0, 0.0, 61781.5390625, 88349.3828125, -30952.248046875, -3989.674560546875, 0.0, 0.0, -0.06000000238418579, 0.9880000352859497, 0.09200000762939453, 192.0, 0.0, 0.0, 0.0, 0.0, 0.0, 0.0, 0.0, 0.0, 0.0, 1.612538111820628E9, 2021-02-05 10:15:11.820
118.0, 0.0, 0.0, 61586.49609375, 88142.9375, -30903.07421875, -2796.247802734375, 0.0, 0.0, -0.06000000238418579, 0.9880000352859497, 0.09200000762939453, 192.0, 0.0, 0.0, 0.0, 0.0, 0.0, 0.0, 0.0, 0.0, 0.0, 1.61253811182063E9, 2021-02-05 10:15:11.820
119.0, 0.0, 0.0, 61858.6953125, 88427.0078125, -31319.8671875, -3511.503662109375, 0.0, 0.0, -0.06000000238418579, 0.9880000352859497, 0.09200000762939453, 192.0, 0.0, 0.0, 0.0, 0.0, 0.0, 0.0, 0.0, 0.0, 0.0, 1.612538111820633E9, 2021-02-05 10:15:11.820
120.0, 0.0, 0.0, 62074.19140625, 88655.265625, -31402.658203125, -4737.34033203125, 0.0, 0.0, -0.06800000369548798, 0.9860000610351562, 0.09800000488758087, 192.0, 253.0, 224.0, 30.0, 208.0, 3.0, 16.0, 0.0, 0.0, 0.0, 1.612538111820635E9, 2021-02-05 10:15:11.820
121.0, 0.0, 0.0, 61843.49609375, 88410.890625, -31015.63671875, -4224.63623046875, 0.0, 0.0, -0.06800000369548798, 0.9860000610351562, 0.09800000488758087, 192.0, 0.0, 0.0, 0.0, 0.0, 0.0, 0.0, 0.0, 0.0, 0.0, 1.612538111880765E9, 2021-02-05 10:15:11.880
122.0, 0.0, 0.0, 61591.2578125, 88150.0703125, -30860.60546875, -2896.383544921875, 0.0, 0.0, -0.06800000369548798, 0.9860000610351562, 0.09800000488758087, 192.0, 0.0, 0.0, 0.0, 0.0, 0.0, 0.0, 0.0, 0.0, 0.0, 1.612538111880768E9, 2021-02-05 10:15:11.880
123.0, 0.0, 0.0, 61799.1953125, 88375.3984375, -31241.814453125, -3254.503173828125, 0.0, 0.0, -0.06800000369548798, 0.9860000610351562, 0.09800000488758087, 192.0, 0.0, 0.0, 0.0, 0.0, 0.0, 0.0, 0.0, 0.0, 0.0, 1.612538111880769E9, 2021-02-05 10:15:11.880
124.0, 0.0, 0.0, 62053.4921875, 88644.9375, -31438.576171875, -4613.55615234375, 0.0, 0.0, -0.06800000369548798, 0.9860000610351562, 0.09800000488758087, 192.0, 0.0, 0.0, 0.0, 0.0, 0.0, 0.0, 0.0, 0.0, 0.0, 1.61253811188077E9, 2021-02-05 10:15:11.880
125.0, 0.0, 0.0, 61895.48828125, 88470.078125, -31096.28125, -4422.3818359375, 0.0, 0.0, -0.06800000369548798, 0.9860000610351562, 0.09800000488758087, 192.0, 0.0, 0.0, 0.0, 0.0, 0.0, 0.0, 0.0, 0.0, 0.0, 1.612538111880771E9, 2021-02-05 10:15:11.880
126.0, 0.0, 0.0, 61601.80859375, 88161.6015625, -30848.580078125, -3056.0869140625, 0.0, 0.0, -0.06800000369548798, 0.9860000610351562, 0.09800000488758087, 192.0, 0.0, 0.0, 0.0, 0.0, 0.0, 0.0, 0.0, 0.0, 0.0, 1.612538111880772E9, 2021-02-05 10:15:11.880
127.0, 0.0, 0.0, 61718.55078125, 88288.359375, -31172.859375, -3021.97802734375, 0.0, 0.0, -0.06800000369548798, 0.9860000610351562, 0.09800000488758087, 192.0, 0.0, 0.0, 0.0, 0.0, 0.0, 0.0, 0.0, 0.0, 0.0, 1.612538111880774E9, 2021-02-05 10:15:11.880
128.0, 0.0, 0.0, 62037.21875, 88622.2265625, -31455.630859375, -4434.5634765625, 0.0, 0.0, -0.06800000369548798, 0.9860000610351562, 0.09800000488758087, 192.0, 0.0, 0.0, 0.0, 0.0, 0.0, 0.0, 0.0, 0.0, 0.0, 1.612538111880775E9, 2021-02-05 10:15:11.880
129.0, 0.0, 0.0, 61967.078125, 88538.5234375, -31169.86328125, -4589.79638671875, 0.0, 0.0, -0.06800000369548798, 0.9860000610351562, 0.09800000488758087, 192.0, 0.0, 0.0, 0.0, 0.0, 0.0, 0.0, 0.0, 0.0, 0.0, 1.612538111880776E9, 2021-02-05 10:15:11.880
130.0, 0.0, 0.0, 61645.90625, 88198.703125, -30848.423828125, -3266.036865234375, 0.0, 0.0, -0.06599999964237213, 0.9860000610351562, 0.09800000488758087, 192.0, 253.0, 240.0, 30.0, 208.0, 3.0, 16.0, 0.0, 0.0, 0.0, 1.612538111880777E9, 2021-02-05 10:15:11.880
131.0, 0.0, 0.0, 61677.8046875, 88241.9140625, -31087.185546875, -2869.3603515625, 0.0, 0.0, -0.06599999964237213, 0.9860000610351562, 0.09800000488758087, 192.0, 0.0, 0.0, 0.0, 0.0, 0.0, 0.0, 0.0, 0.0, 0.0, 1.612538111880778E9, 2021-02-05 10:15:11.880
132.0, 0.0, 0.0, 62014.0625, 88593.8828125, -31440.5, -4234.4931640625, 0.0, 0.0, -0.06599999964237213, 0.9860000610351562, 0.09800000488758087, 192.0, 0.0, 0.0, 0.0, 0.0, 0.0, 0.0, 0.0, 0.0, 0.0, 1.612538111880779E9, 2021-02-05 10:15:11.880
133.0, 0.0, 0.0, 62002.796875, 88574.484375, -31246.12890625, -4720.0849609375, 0.0, 0.0, -0.06599999964237213, 0.9860000610351562, 0.09800000488758087, 192.0, 0.0, 0.0, 0.0, 0.0, 0.0, 0.0, 0.0, 0.0, 0.0, 1.61253811188078E9, 2021-02-05 10:15:11.880
134.0, 0.0, 0.0, 61666.42578125, 88225.8671875, -30871.22265625, -3511.74951171875, 0.0, 0.0, -0.06599999964237213, 0.9860000610351562, 0.09800000488758087, 192.0, 0.0, 0.0, 0.0, 0.0, 0.0, 0.0, 0.0, 0.0, 0.0, 1.612538111880781E9, 2021-02-05 10:15:11.880
135.0, 0.0, 0.0, 61622.796875, 88187.3515625, -31004.4609375, -2769.559814453125, 0.0, 0.0, -0.06599999964237213, 0.9860000610351562, 0.09800000488758087, 192.0, 0.0, 0.0, 0.0, 0.0, 0.0, 0.0, 0.0, 0.0, 0.0, 1.612538111880782E9, 2021-02-05 10:15:11.880
136.0, 0.0, 0.0, 61954.5390625, 88535.6328125, -31409.966796875, -3975.10107421875, 0.0, 0.0, -0.06599999964237213, 0.9860000610351562, 0.09800000488758087, 192.0, 0.0, 0.0, 0.0, 0.0, 0.0, 0.0, 0.0, 0.0, 0.0, 1.612538111941044E9, 2021-02-05 10:15:11.941
137.0, 0.0, 0.0, 62038.875, 88620.015625, -31309.16015625, -4773.416015625, 0.0, 0.0, -0.06599999964237213, 0.9860000610351562, 0.09800000488758087, 192.0, 0.0, 0.0, 0.0, 0.0, 0.0, 0.0, 0.0, 0.0, 0.0, 1.612538111941047E9, 2021-02-05 10:15:11.941
138.0, 0.0, 0.0, 61721.94921875, 88289.5859375, -30914.830078125, -3762.156005859375, 0.0, 0.0, -0.06599999964237213, 0.9860000610351562, 0.09800000488758087, 192.0, 0.0, 0.0, 0.0, 0.0, 0.0, 0.0, 0.0, 0.0, 0.0, 1.612538111941049E9, 2021-02-05 10:15:11.941
139.0, 0.0, 0.0, 61588.28515625, 88152.5703125, -30949.810546875, -2736.970947265625, 0.0, 0.0, -0.06599999964237213, 0.9860000610351562, 0.09800000488758087, 192.0, 0.0, 0.0, 0.0, 0.0, 0.0, 0.0, 0.0, 0.0, 0.0, 1.61253811194105E9, 2021-02-05 10:15:11.941
140.0, 0.0, 0.0, 61900.09375, 88481.59375, -31370.42578125, -3705.85205078125, 0.0, 0.0, -0.06599999964237213, 0.9860000610351562, 0.09800000488758087, 192.0, 0.0, 0.0, 0.0, 0.0, 0.0, 0.0, 0.0, 0.0, 0.0, 1.612538111941057E9, 2021-02-05 10:15:11.941
141.0, 0.0, 0.0, 62064.890625, 88649.046875, -31364.32421875, -4774.55615234375, 0.0, 0.0, -0.06200000271201134, 0.9860000610351562, 0.09600000083446503, 192.0, 254.0, 16.0, 30.0, 208.0, 3.0, 0.0, 0.0, 0.0, 0.0, 1.612538111941058E9, 2021-02-05 10:15:11.941
142.0, 0.0, 0.0, 61782.23046875, 88343.8828125, -30963.400390625, -4018.441162109375, 0.0, 0.0, -0.06200000271201134, 0.9860000610351562, 0.09600000083446503, 192.0, 0.0, 0.0, 0.0, 0.0, 0.0, 0.0, 0.0, 0.0, 0.0, 1.61253811194106E9, 2021-02-05 10:15:11.941
143.0, 0.0, 0.0, 61586.67578125, 88141.171875, -30887.248046875, -2803.333251953125, 0.0, 0.0, -0.06200000271201134, 0.9860000610351562, 0.09600000083446503, 192.0, 0.0, 0.0, 0.0, 0.0, 0.0, 0.0, 0.0, 0.0, 0.0, 1.612538111941061E9, 2021-02-05 10:15:11.941
144.0, 0.0, 0.0, 61857.9375, 88432.171875, -31314.30078125, -3523.797119140625, 0.0, 0.0, -0.06200000271201134, 0.9860000610351562, 0.09600000083446503, 192.0, 0.0, 0.0, 0.0, 0.0, 0.0, 0.0, 0.0, 0.0, 0.0, 1.612538111941062E9, 2021-02-05 10:15:11.941
145.0, 0.0, 0.0, 62066.94921875, 88649.2265625, -31414.458984375, -4800.193359375, 0.0, 0.0, -0.06200000271201134, 0.9860000610351562, 0.09600000083446503, 192.0, 0.0, 0.0, 0.0, 0.0, 0.0, 0.0, 0.0, 0.0, 0.0, 1.612538111941063E9, 2021-02-05 10:15:11.941
146.0, 0.0, 0.0, 61862.71875, 88427.453125, -31024.578125, -4321.1953125, 0.0, 0.0, -0.06200000271201134, 0.9860000610351562, 0.09600000083446503, 192.0, 0.0, 0.0, 0.0, 0.0, 0.0, 0.0, 0.0, 0.0, 0.0, 1.612538111941065E9, 2021-02-05 10:15:11.941
147.0, 0.0, 0.0, 61607.91015625, 88162.453125, -30837.76171875, -2976.89453125, 0.0, 0.0, -0.06200000271201134, 0.9860000610351562, 0.09600000083446503, 192.0, 0.0, 0.0, 0.0, 0.0, 0.0, 0.0, 0.0, 0.0, 0.0, 1.612538111941066E9, 2021-02-05 10:15:11.941
148.0, 0.0, 0.0, 61792.7578125, 88364.3125, -31201.89453125, -3236.219482421875, 0.0, 0.0, -0.06200000271201134, 0.9860000610351562, 0.09600000083446503, 192.0, 0.0, 0.0, 0.0, 0.0, 0.0, 0.0, 0.0, 0.0, 0.0, 1.612538111941068E9, 2021-02-05 10:15:11.941
149.0, 0.0, 0.0, 62059.125, 88647.7734375, -31420.673828125, -4584.02978515625, 0.0, 0.0, -0.06200000271201134, 0.9860000610351562, 0.09600000083446503, 192.0, 0.0, 0.0, 0.0, 0.0, 0.0, 0.0, 0.0, 0.0, 0.0, 1.612538111941069E9, 2021-02-05 10:15:11.941
150.0, 0.0, 0.0, 61910.57421875, 88486.125, -31100.328125, -4460.62548828125, 0.0, 0.0, -0.06200000271201134, 0.9860000610351562, 0.09600000083446503, 192.0, 0.0, 0.0, 0.0, 0.0, 0.0, 0.0, 0.0, 0.0, 0.0, 1.61253811194107E9, 2021-02-05 10:15:11.941
151.0, 0.0, 0.0, 61605.67578125, 88168.1484375, -30843.439453125, -3117.4423828125, 0.0, 0.0, -0.06400000303983688, 0.9880000352859497, 0.09400000423192978, 192.0, 254.0, 0.0, 30.0, 224.0, 2.0, 240.0, 0.0, 0.0, 0.0, 1.612538112001299E9, 2021-02-05 10:15:12.001
152.0, 0.0, 0.0, 61715.17578125, 88288.3828125, -31139.421875, -3012.880859375, 0.0, 0.0, -0.06400000303983688, 0.9880000352859497, 0.09400000423192978, 192.0, 0.0, 0.0, 0.0, 0.0, 0.0, 0.0, 0.0, 0.0, 0.0, 1.612538112001303E9, 2021-02-05 10:15:12.001
153.0, 0.0, 0.0, 62019.8515625, 88606.890625, -31438.443359375, -4391.0224609375, 0.0, 0.0, -0.06400000303983688, 0.9880000352859497, 0.09400000423192978, 192.0, 0.0, 0.0, 0.0, 0.0, 0.0, 0.0, 0.0, 0.0, 0.0, 1.612538112001304E9, 2021-02-05 10:15:12.001
154.0, 0.0, 0.0, 61962.67578125, 88538.5625, -31180.50390625, -4609.287109375, 0.0, 0.0, -0.06400000303983688, 0.9880000352859497, 0.09400000423192978, 192.0, 0.0, 0.0, 0.0, 0.0, 0.0, 0.0, 0.0, 0.0, 0.0, 1.612538112001305E9, 2021-02-05 10:15:12.001
155.0, 0.0, 0.0, 61638.62109375, 88196.984375, -30849.564453125, -3327.81689453125, 0.0, 0.0, -0.06400000303983688, 0.9880000352859497, 0.09400000423192978, 192.0, 0.0, 0.0, 0.0, 0.0, 0.0, 0.0, 0.0, 0.0, 0.0, 1.612538112001306E9, 2021-02-05 10:15:12.001
156.0, 0.0, 0.0, 61670.00390625, 88232.2578125, -31059.53515625, -2853.06591796875, 0.0, 0.0, -0.06400000303983688, 0.9880000352859497, 0.09400000423192978, 192.0, 0.0, 0.0, 0.0, 0.0, 0.0, 0.0, 0.0, 0.0, 0.0, 1.612538112001307E9, 2021-02-05 10:15:12.001
157.0, 0.0, 0.0, 62005.81640625, 88586.015625, -31414.080078125, -4167.39306640625, 0.0, 0.0, -0.06400000303983688, 0.9880000352859497, 0.09400000423192978, 192.0, 0.0, 0.0, 0.0, 0.0, 0.0, 0.0, 0.0, 0.0, 0.0, 1.612538112001308E9, 2021-02-05 10:15:12.001
158.0, 0.0, 0.0, 62015.875, 88595.625, -31239.265625, -4715.56982421875, 0.0, 0.0, -0.06400000303983688, 0.9880000352859497, 0.09400000423192978, 192.0, 0.0, 0.0, 0.0, 0.0, 0.0, 0.0, 0.0, 0.0, 0.0, 1.612538112001309E9, 2021-02-05 10:15:12.001
159.0, 0.0, 0.0, 61684.59765625, 88241.734375, -30872.541015625, -3560.0068359375, 0.0, 0.0, -0.06400000303983688, 0.9880000352859497, 0.09400000423192978, 192.0, 0.0, 0.0, 0.0, 0.0, 0.0, 0.0, 0.0, 0.0, 0.0, 1.61253811200131E9, 2021-02-05 10:15:12.001
160.0, 0.0, 0.0, 61627.51171875, 88186.9296875, -30977.974609375, -2767.9951171875, 0.0, 0.0, -0.06400000303983688, 0.9880000352859497, 0.09400000423192978, 192.0, 0.0, 0.0, 0.0, 0.0, 0.0, 0.0, 0.0, 0.0, 0.0, 1.612538112001311E9, 2021-02-05 10:15:12.001
161.0, 0.0, 0.0, 61942.55859375, 88521.0390625, -31379.58984375, -3906.682373046875, 0.0, 0.0, -0.07600000500679016, 0.9900000691413879, 0.09800000488758087, 192.0, 253.0, 160.0, 30.0, 240.0, 3.0, 16.0, 0.0, 0.0, 0.0, 1.612538112001312E9, 2021-02-05 10:15:12.001
162.0, 0.0, 0.0, 62036.3046875, 88615.5234375, -31307.685546875, -4750.12548828125, 0.0, 0.0, -0.07600000500679016, 0.9900000691413879, 0.09800000488758087, 192.0, 0.0, 0.0, 0.0, 0.0, 0.0, 0.0, 0.0, 0.0, 0.0, 1.612538112001313E9, 2021-02-05 10:15:12.001
163.0, 0.0, 0.0, 61732.56640625, 88292.78125, -30918.205078125, -3814.97314453125, 0.0, 0.0, -0.07600000500679016, 0.9900000691413879, 0.09800000488758087, 192.0, 0.0, 0.0, 0.0, 0.0, 0.0, 0.0, 0.0, 0.0, 0.0, 1.612538112001321E9, 2021-02-05 10:15:12.001
164.0, 0.0, 0.0, 61592.6640625, 88145.21875, -30927.97265625, -2769.962158203125, 0.0, 0.0, -0.07600000500679016, 0.9900000691413879, 0.09800000488758087, 192.0, 0.0, 0.0, 0.0, 0.0, 0.0, 0.0, 0.0, 0.0, 0.0, 1.612538112001322E9, 2021-02-05 10:15:12.001
165.0, 0.0, 0.0, 61877.8515625, 88455.75, -31348.41015625, -3655.09130859375, 0.0, 0.0, -0.07600000500679016, 0.9900000691413879, 0.09800000488758087, 192.0, 0.0, 0.0, 0.0, 0.0, 0.0, 0.0, 0.0, 0.0, 0.0, 1.612538112001323E9, 2021-02-05 10:15:12.001
166.0, 0.0, 0.0, 62045.8046875, 88634.546875, -31376.796875, -4747.8681640625, 0.0, 0.0, -0.07600000500679016, 0.9900000691413879, 0.09800000488758087, 192.0, 0.0, 0.0, 0.0, 0.0, 0.0, 0.0, 0.0, 0.0, 0.0, 1.612538112060626E9, 2021-02-05 10:15:12.060
167.0, 0.0, 0.0, 61789.09375, 88357.2890625, -30980.232421875, -4073.44873046875, 0.0, 0.0, -0.07600000500679016, 0.9900000691413879, 0.09800000488758087, 192.0, 0.0, 0.0, 0.0, 0.0, 0.0, 0.0, 0.0, 0.0, 0.0, 1.612538112060629E9, 2021-02-05 10:15:12.060
168.0, 0.0, 0.0, 61568.37109375, 88134.0625, -30882.822265625, -2838.537353515625, 0.0, 0.0, -0.07600000500679016, 0.9900000691413879, 0.09800000488758087, 192.0, 0.0, 0.0, 0.0, 0.0, 0.0, 0.0, 0.0, 0.0, 0.0, 1.61253811206063E9, 2021-02-05 10:15:12.060
169.0, 0.0, 0.0, 61820.07421875, 88393.28125, -31278.068359375, -3396.772216796875, 0.0, 0.0, -0.07600000500679016, 0.9900000691413879, 0.09800000488758087, 192.0, 0.0, 0.0, 0.0, 0.0, 0.0, 0.0, 0.0, 0.0, 0.0, 1.612538112060631E9, 2021-02-05 10:15:12.060
170.0, 0.0, 0.0, 62055.37109375, 88637.9375, -31406.814453125, -4669.1005859375, 0.0, 0.0, -0.07600000500679016, 0.9900000691413879, 0.09800000488758087, 192.0, 0.0, 0.0, 0.0, 0.0, 0.0, 0.0, 0.0, 0.0, 0.0, 1.612538112060633E9, 2021-02-05 10:15:12.060
171.0, 0.0, 0.0, 61856.28125, 88434.203125, -31037.654296875, -4300.296875, 0.0, 0.0, -0.07600000500679016, 0.9900000691413879, 0.10000000149011612, 192.0, 253.0, 160.0, 30.0, 240.0, 3.0, 32.0, 0.0, 0.0, 0.0, 1.612538112060634E9, 2021-02-05 10:15:12.060
172.0, 0.0, 0.0, 61588.08203125, 88152.328125, -30844.712890625, -2984.851806640625, 0.0, 0.0, -0.07600000500679016, 0.9900000691413879, 0.10000000149011612, 192.0, 0.0, 0.0, 0.0, 0.0, 0.0, 0.0, 0.0, 0.0, 0.0, 1.612538112060635E9, 2021-02-05 10:15:12.060
173.0, 0.0, 0.0, 61748.43359375, 88318.828125, -31202.83203125, -3162.794189453125, 0.0, 0.0, -0.07600000500679016, 0.9900000691413879, 0.10000000149011612, 192.0, 0.0, 0.0, 0.0, 0.0, 0.0, 0.0, 0.0, 0.0, 0.0, 1.612538112060636E9, 2021-02-05 10:15:12.060
174.0, 0.0, 0.0, 62042.00390625, 88628.7109375, -31432.69921875, -4539.19189453125, 0.0, 0.0, -0.07600000500679016, 0.9900000691413879, 0.10000000149011612, 192.0, 0.0, 0.0, 0.0, 0.0, 0.0, 0.0, 0.0, 0.0, 0.0, 1.612538112060637E9, 2021-02-05 10:15:12.060
175.0, 0.0, 0.0, 61913.90625, 88490.484375, -31119.662109375, -4498.44482421875, 0.0, 0.0, -0.07600000500679016, 0.9900000691413879, 0.10000000149011612, 192.0, 0.0, 0.0, 0.0, 0.0, 0.0, 0.0, 0.0, 0.0, 0.0, 1.612538112060638E9, 2021-02-05 10:15:12.060
176.0, 0.0, 0.0, 61601.203125, 88162.1640625, -30845.65234375, -3163.33056640625, 0.0, 0.0, -0.07600000500679016, 0.9900000691413879, 0.10000000149011612, 192.0, 0.0, 0.0, 0.0, 0.0, 0.0, 0.0, 0.0, 0.0, 0.0, 1.612538112060639E9, 2021-02-05 10:15:12.060
177.0, 0.0, 0.0, 61695.4375, 88260.890625, -31127.642578125, -2974.9052734375, 0.0, 0.0, -0.07600000500679016, 0.9900000691413879, 0.10000000149011612, 192.0, 0.0, 0.0, 0.0, 0.0, 0.0, 0.0, 0.0, 0.0, 0.0, 1.61253811206064E9, 2021-02-05 10:15:12.060
178.0, 0.0, 0.0, 62007.37890625, 88588.1640625, -31440.8125, -4341.8037109375, 0.0, 0.0, -0.07600000500679016, 0.9900000691413879, 0.10000000149011612, 192.0, 0.0, 0.0, 0.0, 0.0, 0.0, 0.0, 0.0, 0.0, 0.0, 1.612538112060641E9, 2021-02-05 10:15:12.060
179.0, 0.0, 0.0, 61959.50390625, 88536.0625, -31201.044921875, -4638.23291015625, 0.0, 0.0, -0.07600000500679016, 0.9900000691413879, 0.10000000149011612, 192.0, 0.0, 0.0, 0.0, 0.0, 0.0, 0.0, 0.0, 0.0, 0.0, 1.612538112060642E9, 2021-02-05 10:15:12.060
180.0, 0.0, 0.0, 61638.2421875, 88196.6953125, -30858.81640625, -3381.751708984375, 0.0, 0.0, -0.07600000500679016, 0.9900000691413879, 0.10000000149011612, 192.0, 0.0, 0.0, 0.0, 0.0, 0.0, 0.0, 0.0, 0.0, 0.0, 1.612538112060643E9, 2021-02-05 10:15:12.060
181.0, 0.0, 0.0, 61637.63671875, 88202.796875, -31054.775390625, -2831.9658203125, 0.0, 0.0, -0.07400000095367432, 0.9860000610351562, 0.09800000488758087, 192.0, 253.0, 176.0, 30.0, 208.0, 3.0, 16.0, 0.0, 0.0, 0.0, 1.612538112120548E9, 2021-02-05 10:15:12.120
182.0, 0.0, 0.0, 61976.578125, 88562.6796875, -31425.814453125, -4118.46533203125, 0.0, 0.0, -0.07400000095367432, 0.9860000610351562, 0.09800000488758087, 192.0, 0.0, 0.0, 0.0, 0.0, 0.0, 0.0, 0.0, 0.0, 0.0, 1.61253811212055E9, 2021-02-05 10:15:12.120
183.0, 0.0, 0.0, 62000.18359375, 88582.484375, -31272.591796875, -4733.4736328125, 0.0, 0.0, -0.07400000095367432, 0.9860000610351562, 0.09800000488758087, 192.0, 0.0, 0.0, 0.0, 0.0, 0.0, 0.0, 0.0, 0.0, 0.0, 1.612538112120552E9, 2021-02-05 10:15:12.120
184.0, 0.0, 0.0, 61698.5234375, 88255.8828125, -30895.18359375, -3637.835693359375, 0.0, 0.0, -0.07400000095367432, 0.9860000610351562, 0.09800000488758087, 192.0, 0.0, 0.0, 0.0, 0.0, 0.0, 0.0, 0.0, 0.0, 0.0, 1.612538112120553E9, 2021-02-05 10:15:12.120
185.0, 0.0, 0.0, 61618.86328125, 88184.203125, -30971.3359375, -2780.154541015625, 0.0, 0.0, -0.07400000095367432, 0.9860000610351562, 0.09800000488758087, 192.0, 0.0, 0.0, 0.0, 0.0, 0.0, 0.0, 0.0, 0.0, 0.0, 1.612538112120554E9, 2021-02-05 10:15:12.120
186.0, 0.0, 0.0, 61918.2421875, 88508.234375, -31382.49609375, -3865.219970703125, 0.0, 0.0, -0.07400000095367432, 0.9860000610351562, 0.09800000488758087, 192.0, 0.0, 0.0, 0.0, 0.0, 0.0, 0.0, 0.0, 0.0, 0.0, 1.612538112120555E9, 2021-02-05 10:15:12.120
187.0, 0.0, 0.0, 62020.1640625, 88606.734375, -31331.01953125, -4757.72509765625, 0.0, 0.0, -0.07400000095367432, 0.9860000610351562, 0.09800000488758087, 192.0, 0.0, 0.0, 0.0, 0.0, 0.0, 0.0, 0.0, 0.0, 0.0, 1.612538112120563E9, 2021-02-05 10:15:12.120
188.0, 0.0, 0.0, 61736.3671875, 88304.09375, -30931.9296875, -3880.28515625, 0.0, 0.0, -0.07400000095367432, 0.9860000610351562, 0.09800000488758087, 192.0, 0.0, 0.0, 0.0, 0.0, 0.0, 0.0, 0.0, 0.0, 0.0, 1.612538112120564E9, 2021-02-05 10:15:12.120
189.0, 0.0, 0.0, 61582.78515625, 88146.78125, -30911.142578125, -2788.245849609375, 0.0, 0.0, -0.07400000095367432, 0.9860000610351562, 0.09800000488758087, 192.0, 0.0, 0.0, 0.0, 0.0, 0.0, 0.0, 0.0, 0.0, 0.0, 1.612538112120565E9, 2021-02-05 10:15:12.120
190.0, 0.0, 0.0, 61869.9609375, 88449.8984375, -31319.84375, -3602.072998046875, 0.0, 0.0, -0.07400000095367432, 0.9860000610351562, 0.09800000488758087, 192.0, 0.0, 0.0, 0.0, 0.0, 0.0, 0.0, 0.0, 0.0, 0.0, 1.612538112120566E9, 2021-02-05 10:15:12.120
191.0, 0.0, 0.0, 62055.0546875, 88643.5703125, -31368.83984375, -4735.8203125, 0.0, 0.0, -0.07400000095367432, 0.9860000610351562, 0.09800000488758087, 192.0, 0.0, 0.0, 0.0, 0.0, 0.0, 0.0, 0.0, 0.0, 0.0, 1.612538112120567E9, 2021-02-05 10:15:12.120
192.0, 0.0, 0.0, 61794.97265625, 88372.515625, -30986.400390625, -4109.05517578125, 0.0, 0.0, -0.06599999964237213, 0.984000027179718, 0.09400000423192978, 192.0, 253.0, 240.0, 30.0, 192.0, 2.0, 240.0, 0.0, 0.0, 0.0, 1.612538112120568E9, 2021-02-05 10:15:12.120
193.0, 0.0, 0.0, 61578.671875, 88145.84375, -30866.841796875, -2851.009521484375, 0.0, 0.0, -0.06599999964237213, 0.984000027179718, 0.09400000423192978, 192.0, 0.0, 0.0, 0.0, 0.0, 0.0, 0.0, 0.0, 0.0, 0.0, 1.612538112120569E9, 2021-02-05 10:15:12.120
194.0, 0.0, 0.0, 61811.9140625, 88395.1328125, -31249.392578125, -3336.578857421875, 0.0, 0.0, -0.06599999964237213, 0.984000027179718, 0.09400000423192978, 192.0, 0.0, 0.0, 0.0, 0.0, 0.0, 0.0, 0.0, 0.0, 0.0, 1.61253811212057E9, 2021-02-05 10:15:12.120
195.0, 0.0, 0.0, 62048.84375, 88647.1484375, -31407.8203125, -4636.62353515625, 0.0, 0.0, -0.06599999964237213, 0.984000027179718, 0.09400000423192978, 192.0, 0.0, 0.0, 0.0, 0.0, 0.0, 0.0, 0.0, 0.0, 0.0, 1.612538112120571E9, 2021-02-05 10:15:12.120
196.0, 0.0, 0.0, 61869.515625, 88449.671875, -31049.9921875, -4336.93115234375, 0.0, 0.0, -0.06599999964237213, 0.984000027179718, 0.09400000423192978, 192.0, 0.0, 0.0, 0.0, 0.0, 0.0, 0.0, 0.0, 0.0, 0.0, 1.612538112180748E9, 2021-02-05 10:15:12.180
197.0, 0.0, 0.0, 61588.62109375, 88151.34375, -30836.779296875, -3005.28125, 0.0, 0.0, -0.06599999964237213, 0.984000027179718, 0.09400000423192978, 192.0, 0.0, 0.0, 0.0, 0.0, 0.0, 0.0, 0.0, 0.0, 0.0, 1.612538112180751E9, 2021-02-05 10:15:12.180
198.0, 0.0, 0.0, 61752.03515625, 88327.359375, -31170.556640625, -3116.8388671875, 0.0, 0.0, -0.06599999964237213, 0.984000027179718, 0.09400000423192978, 192.0, 0.0, 0.0, 0.0, 0.0, 0.0, 0.0, 0.0, 0.0, 0.0, 1.612538112180752E9, 2021-02-05 10:15:12.180
199.0, 0.0, 0.0, 62029.171875, 88619.2734375, -31420.091796875, -4490.7333984375, 0.0, 0.0, -0.06599999964237213, 0.984000027179718, 0.09400000423192978, 192.0, 0.0, 0.0, 0.0, 0.0, 0.0, 0.0, 0.0, 0.0, 0.0, 1.612538112180753E9, 2021-02-05 10:15:12.180
200.0, 0.0, 0.0, 61908.69921875, 88483.359375, -31130.837890625, -4502.22216796875, 0.0, 0.0, -0.06599999964237213, 0.984000027179718, 0.09400000423192978, 192.0, 0.0, 0.0, 0.0, 0.0, 0.0, 0.0, 0.0, 0.0, 0.0, 1.612538112180754E9, 2021-02-05 10:15:12.180
201.0, 0.0, 0.0, 61608.1796875, 88164.9140625, -30838.1875, -3181.033203125, 0.0, 0.0, -0.06599999964237213, 0.984000027179718, 0.09400000423192978, 192.0, 0.0, 0.0, 0.0, 0.0, 0.0, 0.0, 0.0, 0.0, 0.0, 1.612538112180755E9, 2021-02-05 10:15:12.180
202.0, 0.0, 0.0, 61681.4453125, 88244.7734375, -31099.544921875, -2923.42919921875, 0.0, 0.0, -0.06400000303983688, 0.9800000190734863, 0.09200000762939453, 192.0, 254.0, 0.0, 30.0, 160.0, 2.0, 224.0, 0.0, 0.0, 0.0, 1.612538112180757E9, 2021-02-05 10:15:12.180
203.0, 0.0, 0.0, 61999.3125, 88588.4296875, -31425.8359375, -4288.31591796875, 0.0, 0.0, -0.06400000303983688, 0.9800000190734863, 0.09200000762939453, 192.0, 0.0, 0.0, 0.0, 0.0, 0.0, 0.0, 0.0, 0.0, 0.0, 1.612538112180758E9, 2021-02-05 10:15:12.180
204.0, 0.0, 0.0, 61970.69921875, 88552.3359375, -31198.67578125, -4659.66796875, 0.0, 0.0, -0.06400000303983688, 0.9800000190734863, 0.09200000762939453, 192.0, 0.0, 0.0, 0.0, 0.0, 0.0, 0.0, 0.0, 0.0, 0.0, 1.612538112180759E9, 2021-02-05 10:15:12.180
205.0, 0.0, 0.0, 61632.36328125, 88199.578125, -30855.642578125, -3425.449462890625, 0.0, 0.0, -0.06400000303983688, 0.9800000190734863, 0.09200000762939453, 192.0, 0.0, 0.0, 0.0, 0.0, 0.0, 0.0, 0.0, 0.0, 0.0, 1.61253811218076E9, 2021-02-05 10:15:12.180
206.0, 0.0, 0.0, 61618.05859375, 88189.921875, -31029.830078125, -2812.31884765625, 0.0, 0.0, -0.06400000303983688, 0.9800000190734863, 0.09200000762939453, 192.0, 0.0, 0.0, 0.0, 0.0, 0.0, 0.0, 0.0, 0.0, 0.0, 1.612538112180761E9, 2021-02-05 10:15:12.180
207.0, 0.0, 0.0, 61955.14453125, 88537.40625, -31411.77734375, -4063.88232421875, 0.0, 0.0, -0.06400000303983688, 0.9800000190734863, 0.09200000762939453, 192.0, 0.0, 0.0, 0.0, 0.0, 0.0, 0.0, 0.0, 0.0, 0.0, 1.612538112180762E9, 2021-02-05 10:15:12.180
208.0, 0.0, 0.0, 62009.68359375, 88593.7734375, -31278.560546875, -4741.49755859375, 0.0, 0.0, -0.06400000303983688, 0.9800000190734863, 0.09200000762939453, 192.0, 0.0, 0.0, 0.0, 0.0, 0.0, 0.0, 0.0, 0.0, 0.0, 1.612538112180763E9, 2021-02-05 10:15:12.180
209.0, 0.0, 0.0, 61707.33203125, 88273.15625, -30877.927734375, -3673.7548828125, 0.0, 0.0, -0.06400000303983688, 0.9800000190734863, 0.09200000762939453, 192.0, 0.0, 0.0, 0.0, 0.0, 0.0, 0.0, 0.0, 0.0, 0.0, 1.612538112180764E9, 2021-02-05 10:15:12.180
210.0, 0.0, 0.0, 61611.328125, 88173.0234375, -30945.921875, -2767.391845703125, 0.0, 0.0, -0.06400000303983688, 0.9800000190734863, 0.09200000762939453, 192.0, 0.0, 0.0, 0.0, 0.0, 0.0, 0.0, 0.0, 0.0, 0.0, 1.61253811218077E9, 2021-02-05 10:15:12.180
211.0, 0.0, 0.0, 61919.15625, 88499.0234375, -31359.630859375, -3811.1064453125, 0.0, 0.0, -0.06400000303983688, 0.9800000190734863, 0.09200000762939453, 192.0, 0.0, 0.0, 0.0, 0.0, 0.0, 0.0, 0.0, 0.0, 0.0, 1.612538112241142E9, 2021-02-05 10:15:12.241
212.0, 0.0, 0.0, 62036.39453125, 88622.1171875, -31332.943359375, -4766.173828125, 0.0, 0.0, -0.06400000303983688, 0.9880000352859497, 0.09200000762939453, 192.0, 254.0, 0.0, 30.0, 224.0, 2.0, 224.0, 0.0, 0.0, 0.0, 1.612538112241146E9, 2021-02-05 10:15:12.241
213.0, 0.0, 0.0, 61745.9765625, 88312.6796875, -30941.98828125, -3927.313232421875, 0.0, 0.0, -0.06400000303983688, 0.9880000352859497, 0.09200000762939453, 192.0, 0.0, 0.0, 0.0, 0.0, 0.0, 0.0, 0.0, 0.0, 0.0, 1.612538112241147E9, 2021-02-05 10:15:12.241
214.0, 0.0, 0.0, 61585.7578125, 88142.4921875, -30895.451171875, -2796.247802734375, 0.0, 0.0, -0.06400000303983688, 0.9880000352859497, 0.09200000762939453, 192.0, 0.0, 0.0, 0.0, 0.0, 0.0, 0.0, 0.0, 0.0, 0.0, 1.612538112241148E9, 2021-02-05 10:15:12.241
215.0, 0.0, 0.0, 61852.50390625, 88427.25, -31307.484375, -3551.93798828125, 0.0, 0.0, -0.06400000303983688, 0.9880000352859497, 0.09200000762939453, 192.0, 0.0, 0.0, 0.0, 0.0, 0.0, 0.0, 0.0, 0.0, 0.0, 1.612538112241149E9, 2021-02-05 10:15:12.241
216.0, 0.0, 0.0, 62041.9375, 88628.59375, -31380.640625, -4732.400390625, 0.0, 0.0, -0.06400000303983688, 0.9880000352859497, 0.09200000762939453, 192.0, 0.0, 0.0, 0.0, 0.0, 0.0, 0.0, 0.0, 0.0, 0.0, 1.61253811224115E9, 2021-02-05 10:15:12.241
217.0, 0.0, 0.0, 61813.92578125, 88382.4375, -30995.923828125, -4177.60791015625, 0.0, 0.0, -0.06400000303983688, 0.9880000352859497, 0.09200000762939453, 192.0, 0.0, 0.0, 0.0, 0.0, 0.0, 0.0, 0.0, 0.0, 0.0, 1.612538112241151E9, 2021-02-05 10:15:12.241
218.0, 0.0, 0.0, 61580.70703125, 88133.90625, -30854.1015625, -2893.589599609375, 0.0, 0.0, -0.06400000303983688, 0.9880000352859497, 0.09200000762939453, 192.0, 0.0, 0.0, 0.0, 0.0, 0.0, 0.0, 0.0, 0.0, 0.0, 1.612538112241152E9, 2021-02-05 10:15:12.241
219.0, 0.0, 0.0, 61780.6875, 88357.5859375, -31239.69140625, -3292.903564453125, 0.0, 0.0, -0.06400000303983688, 0.9880000352859497, 0.09200000762939453, 192.0, 0.0, 0.0, 0.0, 0.0, 0.0, 0.0, 0.0, 0.0, 0.0, 1.612538112241153E9, 2021-02-05 10:15:12.241
220.0, 0.0, 0.0, 62039.74609375, 88633.4453125, -31414.68359375, -4631.97412109375, 0.0, 0.0, -0.06400000303983688, 0.9880000352859497, 0.09200000762939453, 192.0, 0.0, 0.0, 0.0, 0.0, 0.0, 0.0, 0.0, 0.0, 0.0, 1.612538112241154E9, 2021-02-05 10:15:12.241
221.0, 0.0, 0.0, 61860.3046875, 88433.53125, -31069.638671875, -4392.0283203125, 0.0, 0.0, -0.06400000303983688, 0.9880000352859497, 0.09200000762939453, 192.0, 0.0, 0.0, 0.0, 0.0, 0.0, 0.0, 0.0, 0.0, 0.0, 1.612538112241155E9, 2021-02-05 10:15:12.241
222.0, 0.0, 0.0, 61571.36328125, 88128.6328125, -30842.455078125, -3037.60205078125, 0.0, 0.0, -0.06400000303983688, 0.984000027179718, 0.09200000762939453, 192.0, 254.0, 0.0, 30.0, 192.0, 2.0, 224.0, 0.0, 0.0, 0.0, 1.612538112241156E9, 2021-02-05 10:15:12.241
223.0, 0.0, 0.0, 61714.70703125, 88286.4140625, -31165.037109375, -3074.124755859375, 0.0, 0.0, -0.06400000303983688, 0.984000027179718, 0.09200000762939453, 192.0, 0.0, 0.0, 0.0, 0.0, 0.0, 0.0, 0.0, 0.0, 0.0, 1.612538112241158E9, 2021-02-05 10:15:12.241
224.0, 0.0, 0.0, 62014.8671875, 88605.9140625, -31430.126953125, -4459.75390625, 0.0, 0.0, -0.06400000303983688, 0.984000027179718, 0.09200000762939453, 192.0, 0.0, 0.0, 0.0, 0.0, 0.0, 0.0, 0.0, 0.0, 0.0, 1.612538112241159E9, 2021-02-05 10:15:12.241
225.0, 0.0, 0.0, 61919.76171875, 88498.890625, -31141.521484375, -4558.5712890625, 0.0, 0.0, -0.06400000303983688, 0.984000027179718, 0.09200000762939453, 192.0, 0.0, 0.0, 0.0, 0.0, 0.0, 0.0, 0.0, 0.0, 0.0, 1.61253811224116E9, 2021-02-05 10:15:12.241
226.0, 0.0, 0.0, 61607.44140625, 88164.4609375, -30837.181640625, -3243.05908203125, 0.0, 0.0, -0.06400000303983688, 0.984000027179718, 0.09200000762939453, 192.0, 0.0, 0.0, 0.0, 0.0, 0.0, 0.0, 0.0, 0.0, 0.0, 1.612538112301281E9, 2021-02-05 10:15:12.301
227.0, 0.0, 0.0, 61656.27734375, 88220.34375, -31083.05078125, -2897.098876953125, 0.0, 0.0, -0.06400000303983688, 0.984000027179718, 0.09200000762939453, 192.0, 0.0, 0.0, 0.0, 0.0, 0.0, 0.0, 0.0, 0.0, 0.0, 1.612538112301284E9, 2021-02-05 10:15:12.301
228.0, 0.0, 0.0, 61985.98828125, 88572.875, -31424.5390625, -4257.314453125, 0.0, 0.0, -0.06400000303983688, 0.984000027179718, 0.09200000762939453, 192.0, 0.0, 0.0, 0.0, 0.0, 0.0, 0.0, 0.0, 0.0, 0.0, 1.612538112301285E9, 2021-02-05 10:15:12.301
229.0, 0.0, 0.0, 61970.56640625, 88553.71875, -31214.142578125, -4695.00634765625, 0.0, 0.0, -0.06400000303983688, 0.984000027179718, 0.09200000762939453, 192.0, 0.0, 0.0, 0.0, 0.0, 0.0, 0.0, 0.0, 0.0, 0.0, 1.612538112301286E9, 2021-02-05 10:15:12.301
230.0, 0.0, 0.0, 61642.734375, 88207.265625, -30852.46875, -3482.78173828125, 0.0, 0.0, -0.06400000303983688, 0.984000027179718, 0.09200000762939453, 192.0, 0.0, 0.0, 0.0, 0.0, 0.0, 0.0, 0.0, 0.0, 0.0, 1.612538112301287E9, 2021-02-05 10:15:12.301
231.0, 0.0, 0.0, 61599.2578125, 88172.9765625, -31006.5390625, -2794.794921875, 0.0, 0.0, -0.06400000303983688, 0.984000027179718, 0.09200000762939453, 192.0, 0.0, 0.0, 0.0, 0.0, 0.0, 0.0, 0.0, 0.0, 0.0, 1.612538112301289E9, 2021-02-05 10:15:12.301
232.0, 0.0, 0.0, 61930.66796875, 88525.265625, -31402.45703125, -4011.959228515625, 0.0, 0.0, -0.058000002056360245, 0.9860000610351562, 0.09200000762939453, 192.0, 254.0, 48.0, 30.0, 208.0, 2.0, 224.0, 0.0, 0.0, 0.0, 1.61253811230129E9, 2021-02-05 10:15:12.301
233.0, 0.0, 0.0, 62003.3125, 88598.8671875, -31285.82421875, -4753.72412109375, 0.0, 0.0, -0.058000002056360245, 0.9860000610351562, 0.09200000762939453, 192.0, 0.0, 0.0, 0.0, 0.0, 0.0, 0.0, 0.0, 0.0, 0.0, 1.612538112301294E9, 2021-02-05 10:15:12.301
234.0, 0.0, 0.0, 61706.4140625, 88278.4375, -30896.078125, -3731.556640625, 0.0, 0.0, -0.058000002056360245, 0.9860000610351562, 0.09200000762939453, 192.0, 0.0, 0.0, 0.0, 0.0, 0.0, 0.0, 0.0, 0.0, 0.0, 1.612538112301296E9, 2021-02-05 10:15:12.301
235.0, 0.0, 0.0, 61591.859375, 88161.671875, -30942.345703125, -2771.52685546875, 0.0, 0.0, -0.058000002056360245, 0.9860000610351562, 0.09200000762939453, 192.0, 0.0, 0.0, 0.0, 0.0, 0.0, 0.0, 0.0, 0.0, 0.0, 1.612538112301297E9, 2021-02-05 10:15:12.301
236.0, 0.0, 0.0, 61888.40234375, 88476.0, -31357.439453125, -3762.42431640625, 0.0, 0.0, -0.058000002056360245, 0.9860000610351562, 0.09200000762939453, 192.0, 0.0, 0.0, 0.0, 0.0, 0.0, 0.0, 0.0, 0.0, 0.0, 1.612538112301298E9, 2021-02-05 10:15:12.301
237.0, 0.0, 0.0, 62028.6796875, 88618.2734375, -31344.095703125, -4765.52587890625, 0.0, 0.0, -0.058000002056360245, 0.9860000610351562, 0.09200000762939453, 192.0, 0.0, 0.0, 0.0, 0.0, 0.0, 0.0, 0.0, 0.0, 0.0, 1.612538112301299E9, 2021-02-05 10:15:12.301
238.0, 0.0, 0.0, 61752.01171875, 88321.484375, -30949.990234375, -3984.846435546875, 0.0, 0.0, -0.058000002056360245, 0.9860000610351562, 0.09200000762939453, 192.0, 0.0, 0.0, 0.0, 0.0, 0.0, 0.0, 0.0, 0.0, 0.0, 1.6125381123013E9, 2021-02-05 10:15:12.301
239.0, 0.0, 0.0, 61559.80859375, 88122.4453125, -30892.724609375, -2806.50732421875, 0.0, 0.0, -0.058000002056360245, 0.9860000610351562, 0.09200000762939453, 192.0, 0.0, 0.0, 0.0, 0.0, 0.0, 0.0, 0.0, 0.0, 0.0, 1.612538112301301E9, 2021-02-05 10:15:12.301
240.0, 0.0, 0.0, 61816.78515625, 88401.28125, -31305.5625, -3488.6826171875, 0.0, 0.0, -0.058000002056360245, 0.9860000610351562, 0.09200000762939453, 192.0, 0.0, 0.0, 0.0, 0.0, 0.0, 0.0, 0.0, 0.0, 0.0, 1.612538112301302E9, 2021-02-05 10:15:12.301
241.0, 0.0, 0.0, 62041.19921875, 88637.4453125, -31397.13671875, -4716.4638671875, 0.0, 0.0, -0.058000002056360245, 0.9860000610351562, 0.09200000762939453, 192.0, 0.0, 0.0, 0.0, 0.0, 0.0, 0.0, 0.0, 0.0, 0.0, 1.612538112361271E9, 2021-02-05 10:15:12.361
242.0, 0.0, 0.0, 61806.70703125, 88383.9609375, -31019.794921875, -4230.6484375, 0.0, 0.0, -0.058000002056360245, 0.9860000610351562, 0.09200000762939453, 192.0, 0.0, 0.0, 0.0, 0.0, 0.0, 0.0, 0.0, 0.0, 0.0, 1.612538112361274E9, 2021-02-05 10:15:12.361
243.0, 0.0, 0.0, 61547.2265625, 88110.484375, -30867.244140625, -2914.82373046875, 0.0, 0.0, -0.058000002056360245, 0.984000027179718, 0.09000000357627869, 192.0, 254.0, 48.0, 30.0, 192.0, 2.0, 208.0, 0.0, 0.0, 0.0, 1.612538112361275E9, 2021-02-05 10:15:12.361
244.0, 0.0, 0.0, 61749.015625, 88329.1484375, -31239.736328125, -3243.05908203125, 0.0, 0.0, -0.058000002056360245, 0.984000027179718, 0.09000000357627869, 192.0, 0.0, 0.0, 0.0, 0.0, 0.0, 0.0, 0.0, 0.0, 0.0, 1.612538112361276E9, 2021-02-05 10:15:12.361
245.0, 0.0, 0.0, 62015.42578125, 88610.875, -31434.91015625, -4596.79248046875, 0.0, 0.0, -0.058000002056360245, 0.984000027179718, 0.09000000357627869, 192.0, 0.0, 0.0, 0.0, 0.0, 0.0, 0.0, 0.0, 0.0, 0.0, 1.612538112361277E9, 2021-02-05 10:15:12.361
246.0, 0.0, 0.0, 61860.73046875, 88439.75, -31100.9765625, -4431.90380859375, 0.0, 0.0, -0.058000002056360245, 0.984000027179718, 0.09000000357627869, 192.0, 0.0, 0.0, 0.0, 0.0, 0.0, 0.0, 0.0, 0.0, 0.0, 1.612538112361278E9, 2021-02-05 10:15:12.361
247.0, 0.0, 0.0, 61573.6015625, 88134.0390625, -30846.994140625, -3087.93798828125, 0.0, 0.0, -0.058000002056360245, 0.984000027179718, 0.09000000357627869, 192.0, 0.0, 0.0, 0.0, 0.0, 0.0, 0.0, 0.0, 0.0, 0.0, 1.612538112361279E9, 2021-02-05 10:15:12.361
248.0, 0.0, 0.0, 61693.671875, 88263.5234375, -31156.2734375, -3042.340576171875, 0.0, 0.0, -0.058000002056360245, 0.984000027179718, 0.09000000357627869, 192.0, 0.0, 0.0, 0.0, 0.0, 0.0, 0.0, 0.0, 0.0, 0.0, 1.61253811236128E9, 2021-02-05 10:15:12.361
249.0, 0.0, 0.0, 62006.15234375, 88585.8359375, -31444.09765625, -4432.9541015625, 0.0, 0.0, -0.058000002056360245, 0.984000027179718, 0.09000000357627869, 192.0, 0.0, 0.0, 0.0, 0.0, 0.0, 0.0, 0.0, 0.0, 0.0, 1.612538112361281E9, 2021-02-05 10:15:12.361
250.0, 0.0, 0.0, 61925.34765625, 88502.2421875, -31167.78515625, -4607.78955078125, 0.0, 0.0, -0.058000002056360245, 0.984000027179718, 0.09000000357627869, 192.0, 0.0, 0.0, 0.0, 0.0, 0.0, 0.0, 0.0, 0.0, 0.0, 1.612538112361282E9, 2021-02-05 10:15:12.361
251.0, 0.0, 0.0, 61594.56640625, 88161.5546875, -30852.357421875, -3300.883056640625, 0.0, 0.0, -0.058000002056360245, 0.984000027179718, 0.09000000357627869, 192.0, 0.0, 0.0, 0.0, 0.0, 0.0, 0.0, 0.0, 0.0, 0.0, 1.612538112361283E9, 2021-02-05 10:15:12.361
252.0, 0.0, 0.0, 61640.1640625, 88213.1484375, -31078.109375, -2884.425537109375, 0.0, 0.0, -0.058000002056360245, 0.984000027179718, 0.09000000357627869, 192.0, 0.0, 0.0, 0.0, 0.0, 0.0, 0.0, 0.0, 0.0, 0.0, 1.612538112361284E9, 2021-02-05 10:15:12.361
253.0, 0.0, 0.0, 61975.796875, 88565.6328125, -31423.421875, -4226.02197265625, 0.0, 0.0, -0.0560000017285347, 0.9860000610351562, 0.09400000423192978, 192.0, 254.0, 64.0, 30.0, 208.0, 2.0, 240.0, 0.0, 0.0, 0.0, 1.612538112361286E9, 2021-02-05 10:15:12.361
254.0, 0.0, 0.0, 61971.8203125, 88555.6171875, -31235.958984375, -4723.0576171875, 0.0, 0.0, -0.0560000017285347, 0.9860000610351562, 0.09400000423192978, 192.0, 0.0, 0.0, 0.0, 0.0, 0.0, 0.0, 0.0, 0.0, 0.0, 1.612538112361287E9, 2021-02-05 10:15:12.361
255.0, 0.0, 0.0, 61651.765625, 88220.6328125, -30863.17578125, -3543.287841796875, 0.0, 0.0, -0.0560000017285347, 0.9860000610351562, 0.09400000423192978, 192.0, 0.0, 0.0, 0.0, 0.0, 0.0, 0.0, 0.0, 0.0, 0.0, 1.612538112361288E9, 2021-02-05 10:15:12.361
0.0, 0.0, 0.0, 61593.58203125, 88164.578125, -30991.7421875, -2785.29541015625, 0.0, 0.0, -0.0560000017285347, 0.9860000610351562, 0.09400000423192978, 192.0, 0.0, 0.0, 0.0, 0.0, 0.0, 0.0, 0.0, 0.0, 0.0, 1.61253811242056E9, 2021-02-05 10:15:12.420
1.0, 0.0, 0.0, 61920.8359375, 88511.2734375, -31394.298828125, -3965.91455078125, 0.0, 0.0, -0.0560000017285347, 0.9860000610351562, 0.09400000423192978, 192.0, 0.0, 0.0, 0.0, 0.0, 0.0, 0.0, 0.0, 0.0, 0.0, 1.612538112420564E9, 2021-02-05 10:15:12.420
2.0, 0.0, 0.0, 62002.23828125, 88592.7890625, -31301.8515625, -4769.4375, 0.0, 0.0, -0.0560000017285347, 0.9860000610351562, 0.09400000423192978, 192.0, 0.0, 0.0, 0.0, 0.0, 0.0, 0.0, 0.0, 0.0, 0.0, 1.612538112420566E9, 2021-02-05 10:15:12.420
3.0, 0.0, 0.0, 61699.77734375, 88268.171875, -30908.6171875, -3787.81591796875, 0.0, 0.0, -0.0560000017285347, 0.9860000610351562, 0.09400000423192978, 192.0, 0.0, 0.0, 0.0, 0.0, 0.0, 0.0, 0.0, 0.0, 0.0, 1.612538112420568E9, 2021-02-05 10:15:12.420
4.0, 0.0, 0.0, 61574.5390625, 88136.34375, -30926.564453125, -2770.90087890625, 0.0, 0.0, -0.0560000017285347, 0.9860000610351562, 0.09400000423192978, 192.0, 0.0, 0.0, 0.0, 0.0, 0.0, 0.0, 0.0, 0.0, 0.0, 1.61253811242057E9, 2021-02-05 10:15:12.420
5.0, 0.0, 0.0, 61864.44140625, 88448.6015625, -31345.951171875, -3702.320556640625, 0.0, 0.0, -0.0560000017285347, 0.9860000610351562, 0.09400000423192978, 192.0, 0.0, 0.0, 0.0, 0.0, 0.0, 0.0, 0.0, 0.0, 0.0, 1.612538112420572E9, 2021-02-05 10:15:12.420
6.0, 0.0, 0.0, 62018.53515625, 88613.84375, -31366.068359375, -4767.6494140625, 0.0, 0.0, -0.0560000017285347, 0.9860000610351562, 0.09400000423192978, 192.0, 0.0, 0.0, 0.0, 0.0, 0.0, 0.0, 0.0, 0.0, 0.0, 1.612538112420574E9, 2021-02-05 10:15:12.420
7.0, 0.0, 0.0, 61760.68359375, 88333.640625, -30967.8046875, -4045.375, 0.0, 0.0, -0.0560000017285347, 0.9900000691413879, 0.09600000083446503, 192.0, 254.0, 64.0, 30.0, 240.0, 3.0, 0.0, 0.0, 0.0, 0.0, 1.612538112420576E9, 2021-02-05 10:15:12.420
8.0, 0.0, 0.0, 61556.0078125, 88120.875, -30884.947265625, -2820.90185546875, 0.0, 0.0, -0.0560000017285347, 0.9900000691413879, 0.09600000083446503, 192.0, 0.0, 0.0, 0.0, 0.0, 0.0, 0.0, 0.0, 0.0, 0.0, 1.612538112420578E9, 2021-02-05 10:15:12.420
9.0, 0.0, 0.0, 61793.09375, 88381.390625, -31289.06640625, -3429.562255859375, 0.0, 0.0, -0.0560000017285347, 0.9900000691413879, 0.09600000083446503, 192.0, 0.0, 0.0, 0.0, 0.0, 0.0, 0.0, 0.0, 0.0, 0.0, 1.61253811242058E9, 2021-02-05 10:15:12.420
10.0, 0.0, 0.0, 62026.04296875, 88619.1171875, -31407.642578125, -4681.70703125, 0.0, 0.0, -0.0560000017285347, 0.9900000691413879, 0.09600000083446503, 192.0, 0.0, 0.0, 0.0, 0.0, 0.0, 0.0, 0.0, 0.0, 0.0, 1.612538112420582E9, 2021-02-05 10:15:12.420
11.0, 0.0, 0.0, 61823.44921875, 88403.9140625, -31032.423828125, -4265.13720703125, 0.0, 0.0, -0.0560000017285347, 0.9900000691413879, 0.09600000083446503, 192.0, 0.0, 0.0, 0.0, 0.0, 0.0, 0.0, 0.0, 0.0, 0.0, 1.612538112420584E9, 2021-02-05 10:15:12.420
12.0, 0.0, 0.0, 61567.09375, 88146.3359375, -30844.220703125, -2949.02197265625, 0.0, 0.0, -0.0560000017285347, 0.9900000691413879, 0.09600000083446503, 192.0, 0.0, 0.0, 0.0, 0.0, 0.0, 0.0, 0.0, 0.0, 0.0, 1.612538112420586E9, 2021-02-05 10:15:12.420
13.0, 0.0, 0.0, 61748.0546875, 88336.4609375, -31202.9453125, -3190.91259765625, 0.0, 0.0, -0.0560000017285347, 0.9900000691413879, 0.09600000083446503, 192.0, 0.0, 0.0, 0.0, 0.0, 0.0, 0.0, 0.0, 0.0, 0.0, 1.612538112420588E9, 2021-02-05 10:15:12.420
14.0, 0.0, 0.0, 62029.015625, 88628.890625, -31420.359375, -4559.44287109375, 0.0, 0.0, -0.0560000017285347, 0.9900000691413879, 0.09600000083446503, 192.0, 0.0, 0.0, 0.0, 0.0, 0.0, 0.0, 0.0, 0.0, 0.0, 1.61253811242059E9, 2021-02-05 10:15:12.420
15.0, 0.0, 0.0, 61886.92578125, 88471.890625, -31094.337890625, -4467.5546875, 0.0, 0.0, -0.0560000017285347, 0.9900000691413879, 0.09600000083446503, 192.0, 0.0, 0.0, 0.0, 0.0, 0.0, 0.0, 0.0, 0.0, 0.0, 1.612538112480971E9, 2021-02-05 10:15:12.480
16.0, 0.0, 0.0, 61573.33203125, 88139.40625, -30831.48046875, -3101.013916015625, 0.0, 0.0, -0.0560000017285347, 0.9900000691413879, 0.09600000083446503, 192.0, 0.0, 0.0, 0.0, 0.0, 0.0, 0.0, 0.0, 0.0, 0.0, 1.612538112480974E9, 2021-02-05 10:15:12.480
17.0, 0.0, 0.0, 61684.33203125, 88263.7734375, -31127.3515625, -2972.781982421875, 0.0, 0.0, -0.05400000140070915, 0.9960000514984131, 0.09600000083446503, 192.0, 254.0, 80.0, 31.0, 32.0, 3.0, 0.0, 0.0, 0.0, 0.0, 1.612538112480975E9, 2021-02-05 10:15:12.480
18.0, 0.0, 0.0, 62007.4921875, 88606.2265625, -31426.595703125, -4382.50634765625, 0.0, 0.0, -0.05400000140070915, 0.9960000514984131, 0.09600000083446503, 192.0, 0.0, 0.0, 0.0, 0.0, 0.0, 0.0, 0.0, 0.0, 0.0, 1.612538112480976E9, 2021-02-05 10:15:12.480
19.0, 0.0, 0.0, 61936.92578125, 88528.75, -31168.09765625, -4623.078125, 0.0, 0.0, -0.05400000140070915, 0.9960000514984131, 0.09600000083446503, 192.0, 0.0, 0.0, 0.0, 0.0, 0.0, 0.0, 0.0, 0.0, 0.0, 1.612538112480977E9, 2021-02-05 10:15:12.480
20.0, 0.0, 0.0, 61619.64453125, 88190.703125, -30829.916015625, -3326.63232421875, 0.0, 0.0, -0.05400000140070915, 0.9960000514984131, 0.09600000083446503, 192.0, 0.0, 0.0, 0.0, 0.0, 0.0, 0.0, 0.0, 0.0, 0.0, 1.612538112480978E9, 2021-02-05 10:15:12.480
21.0, 0.0, 0.0, 61631.08984375, 88206.7734375, -31041.431640625, -2820.946533203125, 0.0, 0.0, -0.05400000140070915, 0.9960000514984131, 0.09600000083446503, 192.0, 0.0, 0.0, 0.0, 0.0, 0.0, 0.0, 0.0, 0.0, 0.0, 1.612538112480979E9, 2021-02-05 10:15:12.480
22.0, 0.0, 0.0, 61966.3203125, 88565.3671875, -31411.0625, -4147.947265625, 0.0, 0.0, -0.05400000140070915, 0.9960000514984131, 0.09600000083446503, 192.0, 0.0, 0.0, 0.0, 0.0, 0.0, 0.0, 0.0, 0.0, 0.0, 1.61253811248098E9, 2021-02-05 10:15:12.480
23.0, 0.0, 0.0, 61992.13671875, 88586.2421875, -31234.05859375, -4726.58935546875, 0.0, 0.0, -0.05400000140070915, 0.9960000514984131, 0.09600000083446503, 192.0, 0.0, 0.0, 0.0, 0.0, 0.0, 0.0, 0.0, 0.0, 0.0, 1.612538112480981E9, 2021-02-05 10:15:12.480
24.0, 0.0, 0.0, 61671.0078125, 88241.6015625, -30854.01171875, -3568.72412109375, 0.0, 0.0, -0.05400000140070915, 0.9960000514984131, 0.09600000083446503, 192.0, 0.0, 0.0, 0.0, 0.0, 0.0, 0.0, 0.0, 0.0, 0.0, 1.612538112480987E9, 2021-02-05 10:15:12.480
25.0, 0.0, 0.0, 61592.98046875, 88168.4609375, -30965.033203125, -2738.200439453125, 0.0, 0.0, -0.05400000140070915, 0.9960000514984131, 0.09600000083446503, 192.0, 0.0, 0.0, 0.0, 0.0, 0.0, 0.0, 0.0, 0.0, 0.0, 1.612538112480988E9, 2021-02-05 10:15:12.480
26.0, 0.0, 0.0, 61924.90234375, 88517.6875, -31370.42578125, -3892.399658203125, 0.0, 0.0, -0.05400000140070915, 0.9960000514984131, 0.09600000083446503, 192.0, 0.0, 0.0, 0.0, 0.0, 0.0, 0.0, 0.0, 0.0, 0.0, 1.612538112480989E9, 2021-02-05 10:15:12.480
27.0, 0.0, 0.0, 62017.59375, 88605.328125, -31301.806640625, -4771.248046875, 0.0, 0.0, -0.05400000140070915, 0.9960000514984131, 0.09000000357627869, 192.0, 254.0, 80.0, 31.0, 32.0, 2.0, 208.0, 0.0, 0.0, 0.0, 1.612538112480991E9, 2021-02-05 10:15:12.480
28.0, 0.0, 0.0, 61713.90234375, 88280.78125, -30904.4140625, -3831.625244140625, 0.0, 0.0, -0.05400000140070915, 0.9960000514984131, 0.09000000357627869, 192.0, 0.0, 0.0, 0.0, 0.0, 0.0, 0.0, 0.0, 0.0, 0.0, 1.612538112480992E9, 2021-02-05 10:15:12.480
29.0, 0.0, 0.0, 61571.72265625, 88134.578125, -30905.2421875, -2754.070068359375, 0.0, 0.0, -0.05400000140070915, 0.9960000514984131, 0.09000000357627869, 192.0, 0.0, 0.0, 0.0, 0.0, 0.0, 0.0, 0.0, 0.0, 0.0, 1.612538112480993E9, 2021-02-05 10:15:12.480
30.0, 0.0, 0.0, 61853.9140625, 88435.6328125, -31329.90234375, -3631.06298828125, 0.0, 0.0, -0.05400000140070915, 0.9960000514984131, 0.09000000357627869, 192.0, 0.0, 0.0, 0.0, 0.0, 0.0, 0.0, 0.0, 0.0, 0.0, 1.612538112541142E9, 2021-02-05 10:15:12.541
31.0, 0.0, 0.0, 62026.265625, 88619.3671875, -31366.3359375, -4764.74365234375, 0.0, 0.0, -0.05400000140070915, 0.9960000514984131, 0.09000000357627869, 192.0, 0.0, 0.0, 0.0, 0.0, 0.0, 0.0, 0.0, 0.0, 0.0, 1.612538112541146E9, 2021-02-05 10:15:12.541
32.0, 0.0, 0.0, 61767.32421875, 88340.015625, -30972.498046875, -4087.44091796875, 0.0, 0.0, -0.05400000140070915, 0.9960000514984131, 0.09000000357627869, 192.0, 0.0, 0.0, 0.0, 0.0, 0.0, 0.0, 0.0, 0.0, 0.0, 1.612538112541147E9, 2021-02-05 10:15:12.541
33.0, 0.0, 0.0, 61558.66796875, 88119.4921875, -30869.255859375, -2826.914306640625, 0.0, 0.0, -0.05400000140070915, 0.9960000514984131, 0.09000000357627869, 192.0, 0.0, 0.0, 0.0, 0.0, 0.0, 0.0, 0.0, 0.0, 0.0, 1.612538112541148E9, 2021-02-05 10:15:12.541
34.0, 0.0, 0.0, 61799.3515625, 88378.328125, -31271.654296875, -3373.01220703125, 0.0, 0.0, -0.05400000140070915, 0.9960000514984131, 0.09000000357627869, 192.0, 0.0, 0.0, 0.0, 0.0, 0.0, 0.0, 0.0, 0.0, 0.0, 1.612538112541149E9, 2021-02-05 10:15:12.541
35.0, 0.0, 0.0, 62040.68359375, 88633.6484375, -31413.498046875, -4676.76708984375, 0.0, 0.0, -0.05400000140070915, 0.9960000514984131, 0.09000000357627869, 192.0, 0.0, 0.0, 0.0, 0.0, 0.0, 0.0, 0.0, 0.0, 0.0, 1.61253811254115E9, 2021-02-05 10:15:12.541
36.0, 0.0, 0.0, 61839.69921875, 88418.46875, -31048.271484375, -4320.52490234375, 0.0, 0.0, -0.05400000140070915, 0.9960000514984131, 0.09000000357627869, 192.0, 0.0, 0.0, 0.0, 0.0, 0.0, 0.0, 0.0, 0.0, 0.0, 1.612538112541151E9, 2021-02-05 10:15:12.541
37.0, 0.0, 0.0, 61564.34765625, 88129.0390625, -30842.544921875, -2962.81298828125, 0.0, 0.0, -0.05400000140070915, 0.9960000514984131, 0.09000000357627869, 192.0, 0.0, 0.0, 0.0, 0.0, 0.0, 0.0, 0.0, 0.0, 0.0, 1.612538112541152E9, 2021-02-05 10:15:12.541
38.0, 0.0, 0.0, 61734.6875, 88310.0859375, -31195.43359375, -3131.501708984375, 0.0, 0.0, -0.06400000303983688, 0.984000027179718, 0.08800000697374344, 192.0, 254.0, 0.0, 30.0, 192.0, 2.0, 192.0, 0.0, 0.0, 0.0, 1.612538112541153E9, 2021-02-05 10:15:12.541
39.0, 0.0, 0.0, 62024.859375, 88616.59375, -31434.642578125, -4532.6875, 0.0, 0.0, -0.06400000303983688, 0.984000027179718, 0.08800000697374344, 192.0, 0.0, 0.0, 0.0, 0.0, 0.0, 0.0, 0.0, 0.0, 0.0, 1.612538112541154E9, 2021-02-05 10:15:12.541
40.0, 0.0, 0.0, 61891.77734375, 88475.84375, -31114.54296875, -4505.306640625, 0.0, 0.0, -0.06400000303983688, 0.984000027179718, 0.08800000697374344, 192.0, 0.0, 0.0, 0.0, 0.0, 0.0, 0.0, 0.0, 0.0, 0.0, 1.612538112541155E9, 2021-02-05 10:15:12.541
41.0, 0.0, 0.0, 61574.3359375, 88137.1015625, -30835.37109375, -3134.586181640625, 0.0, 0.0, -0.06400000303983688, 0.984000027179718, 0.08800000697374344, 192.0, 0.0, 0.0, 0.0, 0.0, 0.0, 0.0, 0.0, 0.0, 0.0, 1.612538112541156E9, 2021-02-05 10:15:12.541
42.0, 0.0, 0.0, 61669.0859375, 88245.8046875, -31115.03515625, -2935.02978515625, 0.0, 0.0, -0.06400000303983688, 0.984000027179718, 0.08800000697374344, 192.0, 0.0, 0.0, 0.0, 0.0, 0.0, 0.0, 0.0, 0.0, 0.0, 1.612538112541157E9, 2021-02-05 10:15:12.541
43.0, 0.0, 0.0, 61991.7578125, 88586.9140625, -31435.357421875, -4341.73681640625, 0.0, 0.0, -0.06400000303983688, 0.984000027179718, 0.08800000697374344, 192.0, 0.0, 0.0, 0.0, 0.0, 0.0, 0.0, 0.0, 0.0, 0.0, 1.612538112541158E9, 2021-02-05 10:15:12.541
44.0, 0.0, 0.0, 61932.81640625, 88520.5703125, -31201.40234375, -4654.81787109375, 0.0, 0.0, -0.06400000303983688, 0.984000027179718, 0.08800000697374344, 192.0, 0.0, 0.0, 0.0, 0.0, 0.0, 0.0, 0.0, 0.0, 0.0, 1.612538112541159E9, 2021-02-05 10:15:12.541
45.0, 0.0, 0.0, 61610.48046875, 88180.9140625, -30858.83984375, -3378.734375, 0.0, 0.0, -0.06400000303983688, 0.984000027179718, 0.08800000697374344, 192.0, 0.0, 0.0, 0.0, 0.0, 0.0, 0.0, 0.0, 0.0, 0.0, 1.612538112601427E9, 2021-02-05 10:15:12.601
46.0, 0.0, 0.0, 61619.19921875, 88196.828125, -31040.1796875, -2806.261474609375, 0.0, 0.0, -0.06400000303983688, 0.984000027179718, 0.08800000697374344, 192.0, 0.0, 0.0, 0.0, 0.0, 0.0, 0.0, 0.0, 0.0, 0.0, 1.61253811260143E9, 2021-02-05 10:15:12.601
47.0, 0.0, 0.0, 61953.06640625, 88547.53125, -31417.140625, -4107.89306640625, 0.0, 0.0, -0.06400000303983688, 0.984000027179718, 0.08800000697374344, 192.0, 0.0, 0.0, 0.0, 0.0, 0.0, 0.0, 0.0, 0.0, 0.0, 1.612538112601436E9, 2021-02-05 10:15:12.601
48.0, 0.0, 0.0, 61972.95703125, 88566.4609375, -31269.0390625, -4744.96240234375, 0.0, 0.0, -0.06400000303983688, 0.9860000610351562, 0.09400000423192978, 192.0, 254.0, 0.0, 30.0, 208.0, 2.0, 240.0, 0.0, 0.0, 0.0, 1.612538112601437E9, 2021-02-05 10:15:12.601
49.0, 0.0, 0.0, 61651.4296875, 88223.40625, -30884.544921875, -3619.060302734375, 0.0, 0.0, -0.06400000303983688, 0.9860000610351562, 0.09400000423192978, 192.0, 0.0, 0.0, 0.0, 0.0, 0.0, 0.0, 0.0, 0.0, 0.0, 1.612538112601438E9, 2021-02-05 10:15:12.601
50.0, 0.0, 0.0, 61579.45703125, 88151.5234375, -30959.19921875, -2741.642578125, 0.0, 0.0, -0.06400000303983688, 0.9860000610351562, 0.09400000423192978, 192.0, 0.0, 0.0, 0.0, 0.0, 0.0, 0.0, 0.0, 0.0, 0.0, 1.612538112601439E9, 2021-02-05 10:15:12.601
51.0, 0.0, 0.0, 61891.30859375, 88483.671875, -31378.40625, -3835.38037109375, 0.0, 0.0, -0.06400000303983688, 0.9860000610351562, 0.09400000423192978, 192.0, 0.0, 0.0, 0.0, 0.0, 0.0, 0.0, 0.0, 0.0, 0.0, 1.61253811260144E9, 2021-02-05 10:15:12.601
52.0, 0.0, 0.0, 62001.6796875, 88595.921875, -31336.83203125, -4771.806640625, 0.0, 0.0, -0.06400000303983688, 0.9860000610351562, 0.09400000423192978, 192.0, 0.0, 0.0, 0.0, 0.0, 0.0, 0.0, 0.0, 0.0, 0.0, 1.612538112601442E9, 2021-02-05 10:15:12.601
53.0, 0.0, 0.0, 61709.90234375, 88286.234375, -30937.80859375, -3879.636962890625, 0.0, 0.0, -0.06400000303983688, 0.9860000610351562, 0.09400000423192978, 192.0, 0.0, 0.0, 0.0, 0.0, 0.0, 0.0, 0.0, 0.0, 0.0, 1.612538112601443E9, 2021-02-05 10:15:12.601
54.0, 0.0, 0.0, 61545.52734375, 88117.59375, -30913.9140625, -2747.386962890625, 0.0, 0.0, -0.06400000303983688, 0.9860000610351562, 0.09400000423192978, 192.0, 0.0, 0.0, 0.0, 0.0, 0.0, 0.0, 0.0, 0.0, 0.0, 1.612538112601444E9, 2021-02-05 10:15:12.601
55.0, 0.0, 0.0, 61822.26171875, 88416.140625, -31335.736328125, -3557.458740234375, 0.0, 0.0, -0.06400000303983688, 0.9860000610351562, 0.09400000423192978, 192.0, 0.0, 0.0, 0.0, 0.0, 0.0, 0.0, 0.0, 0.0, 0.0, 1.612538112601445E9, 2021-02-05 10:15:12.601
56.0, 0.0, 0.0, 62014.64453125, 88619.453125, -31393.783203125, -4738.0556640625, 0.0, 0.0, -0.06400000303983688, 0.9860000610351562, 0.09400000423192978, 192.0, 0.0, 0.0, 0.0, 0.0, 0.0, 0.0, 0.0, 0.0, 0.0, 1.612538112601446E9, 2021-02-05 10:15:12.601
57.0, 0.0, 0.0, 61763.09765625, 88352.5078125, -31001.51171875, -4135.3857421875, 0.0, 0.0, -0.06400000303983688, 0.9860000610351562, 0.09400000423192978, 192.0, 0.0, 0.0, 0.0, 0.0, 0.0, 0.0, 0.0, 0.0, 0.0, 1.612538112601447E9, 2021-02-05 10:15:12.601
58.0, 0.0, 0.0, 61537.6796875, 88110.5703125, -30866.39453125, -2840.1689453125, 0.0, 0.0, -0.06000000238418579, 0.984000027179718, 0.08800000697374344, 192.0, 254.0, 32.0, 30.0, 192.0, 2.0, 192.0, 0.0, 0.0, 0.0, 1.612538112601448E9, 2021-02-05 10:15:12.601
59.0, 0.0, 0.0, 61768.57421875, 88354.1640625, -31254.130859375, -3308.795654296875, 0.0, 0.0, -0.06000000238418579, 0.984000027179718, 0.08800000697374344, 192.0, 0.0, 0.0, 0.0, 0.0, 0.0, 0.0, 0.0, 0.0, 0.0, 1.612538112601449E9, 2021-02-05 10:15:12.601
60.0, 0.0, 0.0, 62010.1953125, 88611.546875, -31426.23828125, -4650.0791015625, 0.0, 0.0, -0.06000000238418579, 0.984000027179718, 0.08800000697374344, 192.0, 0.0, 0.0, 0.0, 0.0, 0.0, 0.0, 0.0, 0.0, 0.0, 1.61253811266169E9, 2021-02-05 10:15:12.661
61.0, 0.0, 0.0, 61824.72265625, 88411.9453125, -31068.052734375, -4359.17138671875, 0.0, 0.0, -0.06000000238418579, 0.984000027179718, 0.08800000697374344, 192.0, 0.0, 0.0, 0.0, 0.0, 0.0, 0.0, 0.0, 0.0, 0.0, 1.612538112661694E9, 2021-02-05 10:15:12.661
62.0, 0.0, 0.0, 61539.0, 88118.3515625, -30848.15625, -2987.3330078125, 0.0, 0.0, -0.06000000238418579, 0.984000027179718, 0.08800000697374344, 192.0, 0.0, 0.0, 0.0, 0.0, 0.0, 0.0, 0.0, 0.0, 0.0, 1.612538112661695E9, 2021-02-05 10:15:12.661
63.0, 0.0, 0.0, 61699.70703125, 88285.5625, -31179.38671875, -3072.604736328125, 0.0, 0.0, -0.06000000238418579, 0.984000027179718, 0.08800000697374344, 192.0, 0.0, 0.0, 0.0, 0.0, 0.0, 0.0, 0.0, 0.0, 0.0, 1.612538112661696E9, 2021-02-05 10:15:12.661
64.0, 0.0, 0.0, 61988.62890625, 88594.9609375, -31446.466796875, -4484.47509765625, 0.0, 0.0, -0.06000000238418579, 0.984000027179718, 0.08800000697374344, 192.0, 0.0, 0.0, 0.0, 0.0, 0.0, 0.0, 0.0, 0.0, 0.0, 1.612538112661697E9, 2021-02-05 10:15:12.661
65.0, 0.0, 0.0, 61870.02734375, 88466.1484375, -31146.41796875, -4530.36328125, 0.0, 0.0, -0.06000000238418579, 0.984000027179718, 0.08800000697374344, 192.0, 0.0, 0.0, 0.0, 0.0, 0.0, 0.0, 0.0, 0.0, 0.0, 1.612538112661698E9, 2021-02-05 10:15:12.661
66.0, 0.0, 0.0, 61559.25, 88134.7578125, -30846.009765625, -3181.591796875, 0.0, 0.0, -0.06000000238418579, 0.984000027179718, 0.08800000697374344, 192.0, 0.0, 0.0, 0.0, 0.0, 0.0, 0.0, 0.0, 0.0, 0.0, 1.612538112661699E9, 2021-02-05 10:15:12.661
67.0, 0.0, 0.0, 61634.44140625, 88217.4375, -31105.71484375, -2896.495361328125, 0.0, 0.0, -0.06000000238418579, 0.984000027179718, 0.08800000697374344, 192.0, 0.0, 0.0, 0.0, 0.0, 0.0, 0.0, 0.0, 0.0, 0.0, 1.6125381126617E9, 2021-02-05 10:15:12.661
68.0, 0.0, 0.0, 61959.5234375, 88560.3125, -31435.58203125, -4282.14697265625, 0.0, 0.0, -0.05400000140070915, 0.9900000691413879, 0.09000000357627869, 192.0, 254.0, 80.0, 30.0, 240.0, 2.0, 208.0, 0.0, 0.0, 0.0, 1.612538112661701E9, 2021-02-05 10:15:12.661
69.0, 0.0, 0.0, 61913.5234375, 88508.6328125, -31213.5625, -4657.4326171875, 0.0, 0.0, -0.05400000140070915, 0.9900000691413879, 0.09000000357627869, 192.0, 0.0, 0.0, 0.0, 0.0, 0.0, 0.0, 0.0, 0.0, 0.0, 1.612538112661702E9, 2021-02-05 10:15:12.661
70.0, 0.0, 0.0, 61590.1640625, 88164.7578125, -30863.287109375, -3422.18603515625, 0.0, 0.0, -0.05400000140070915, 0.9900000691413879, 0.09000000357627869, 192.0, 0.0, 0.0, 0.0, 0.0, 0.0, 0.0, 0.0, 0.0, 0.0, 1.612538112661708E9, 2021-02-05 10:15:12.661
71.0, 0.0, 0.0, 61582.875, 88163.2109375, -31020.509765625, -2794.59375, 0.0, 0.0, -0.05400000140070915, 0.9900000691413879, 0.09000000357627869, 192.0, 0.0, 0.0, 0.0, 0.0, 0.0, 0.0, 0.0, 0.0, 0.0, 1.612538112661709E9, 2021-02-05 10:15:12.661
72.0, 0.0, 0.0, 61916.85546875, 88514.15625, -31405.00390625, -4044.145751953125, 0.0, 0.0, -0.05400000140070915, 0.9900000691413879, 0.09000000357627869, 192.0, 0.0, 0.0, 0.0, 0.0, 0.0, 0.0, 0.0, 0.0, 0.0, 1.61253811266171E9, 2021-02-05 10:15:12.661
73.0, 0.0, 0.0, 61967.86328125, 88562.9921875, -31276.81640625, -4743.1962890625, 0.0, 0.0, -0.05400000140070915, 0.9900000691413879, 0.09000000357627869, 192.0, 0.0, 0.0, 0.0, 0.0, 0.0, 0.0, 0.0, 0.0, 0.0, 1.612538112661711E9, 2021-02-05 10:15:12.661
74.0, 0.0, 0.0, 61649.86328125, 88226.0, -30891.541015625, -3683.5673828125, 0.0, 0.0, -0.05400000140070915, 0.9900000691413879, 0.09000000357627869, 192.0, 0.0, 0.0, 0.0, 0.0, 0.0, 0.0, 0.0, 0.0, 0.0, 1.612538112661712E9, 2021-02-05 10:15:12.661
75.0, 0.0, 0.0, 61545.16796875, 88115.15625, -30951.599609375, -2749.465576171875, 0.0, 0.0, -0.05400000140070915, 0.9900000691413879, 0.09000000357627869, 192.0, 0.0, 0.0, 0.0, 0.0, 0.0, 0.0, 0.0, 0.0, 0.0, 1.612538112721544E9, 2021-02-05 10:15:12.721
76.0, 0.0, 0.0, 61849.59765625, 88437.421875, -31367.966796875, -3779.478759765625, 0.0, 0.0, -0.05400000140070915, 0.9900000691413879, 0.09000000357627869, 192.0, 0.0, 0.0, 0.0, 0.0, 0.0, 0.0, 0.0, 0.0, 0.0, 1.612538112721547E9, 2021-02-05 10:15:12.721
77.0, 0.0, 0.0, 61978.5, 88570.484375, -31349.70703125, -4758.6640625, 0.0, 0.0, -0.05400000140070915, 0.9900000691413879, 0.09000000357627869, 192.0, 0.0, 0.0, 0.0, 0.0, 0.0, 0.0, 0.0, 0.0, 0.0, 1.612538112721548E9, 2021-02-05 10:15:12.721
78.0, 0.0, 0.0, 61710.28125, 88283.375, -30946.4140625, -3945.0380859375, 0.0, 0.0, -0.06200000271201134, 0.984000027179718, 0.0860000029206276, 192.0, 254.0, 16.0, 30.0, 192.0, 2.0, 176.0, 0.0, 0.0, 0.0, 1.612538112721549E9, 2021-02-05 10:15:12.721
79.0, 0.0, 0.0, 61528.828125, 88094.796875, -30899.228515625, -2784.31201171875, 0.0, 0.0, -0.06200000271201134, 0.984000027179718, 0.0860000029206276, 192.0, 0.0, 0.0, 0.0, 0.0, 0.0, 0.0, 0.0, 0.0, 0.0, 1.61253811272155E9, 2021-02-05 10:15:12.721
80.0, 0.0, 0.0, 61791.1484375, 88376.3125, -31316.24609375, -3510.85546875, 0.0, 0.0, -0.06200000271201134, 0.984000027179718, 0.0860000029206276, 192.0, 0.0, 0.0, 0.0, 0.0, 0.0, 0.0, 0.0, 0.0, 0.0, 1.612538112721551E9, 2021-02-05 10:15:12.721
81.0, 0.0, 0.0, 62001.79296875, 88590.7578125, -31391.369140625, -4704.59521484375, 0.0, 0.0, -0.06200000271201134, 0.984000027179718, 0.0860000029206276, 192.0, 0.0, 0.0, 0.0, 0.0, 0.0, 0.0, 0.0, 0.0, 0.0, 1.612538112721552E9, 2021-02-05 10:15:12.721
82.0, 0.0, 0.0, 61768.015625, 88341.0390625, -31002.560546875, -4166.00732421875, 0.0, 0.0, -0.06200000271201134, 0.984000027179718, 0.0860000029206276, 192.0, 0.0, 0.0, 0.0, 0.0, 0.0, 0.0, 0.0, 0.0, 0.0, 1.612538112721553E9, 2021-02-05 10:15:12.721
83.0, 0.0, 0.0, 61522.86328125, 88091.1015625, -30853.251953125, -2863.638427734375, 0.0, 0.0, -0.06200000271201134, 0.984000027179718, 0.0860000029206276, 192.0, 0.0, 0.0, 0.0, 0.0, 0.0, 0.0, 0.0, 0.0, 0.0, 1.612538112721554E9, 2021-02-05 10:15:12.721
84.0, 0.0, 0.0, 61739.875, 88326.046875, -31231.912109375, -3251.46337890625, 0.0, 0.0, -0.06200000271201134, 0.984000027179718, 0.0860000029206276, 192.0, 0.0, 0.0, 0.0, 0.0, 0.0, 0.0, 0.0, 0.0, 0.0, 1.612538112721555E9, 2021-02-05 10:15:12.721
85.0, 0.0, 0.0, 61989.9453125, 88593.53125, -31416.314453125, -4592.8583984375, 0.0, 0.0, -0.06200000271201134, 0.984000027179718, 0.0860000029206276, 192.0, 0.0, 0.0, 0.0, 0.0, 0.0, 0.0, 0.0, 0.0, 0.0, 1.612538112721556E9, 2021-02-05 10:15:12.721
86.0, 0.0, 0.0, 61832.45703125, 88421.7734375, -31068.052734375, -4380.29345703125, 0.0, 0.0, -0.06200000271201134, 0.984000027179718, 0.0860000029206276, 192.0, 0.0, 0.0, 0.0, 0.0, 0.0, 0.0, 0.0, 0.0, 0.0, 1.612538112721557E9, 2021-02-05 10:15:12.721
87.0, 0.0, 0.0, 61544.54296875, 88112.1640625, -30833.91796875, -3022.98388671875, 0.0, 0.0, -0.06200000271201134, 0.984000027179718, 0.0860000029206276, 192.0, 0.0, 0.0, 0.0, 0.0, 0.0, 0.0, 0.0, 0.0, 0.0, 1.612538112721558E9, 2021-02-05 10:15:12.721
88.0, 0.0, 0.0, 61684.5078125, 88260.734375, -31160.69921875, -3033.77978515625, 0.0, 0.0, -0.06200000271201134, 0.984000027179718, 0.0860000029206276, 192.0, 0.0, 0.0, 0.0, 0.0, 0.0, 0.0, 0.0, 0.0, 0.0, 1.612538112721559E9, 2021-02-05 10:15:12.721
89.0, 0.0, 0.0, 61980.69140625, 88584.1875, -31438.30859375, -4434.18359375, 0.0, 0.0, -0.06800000369548798, 0.9900000691413879, 0.08800000697374344, 192.0, 253.0, 224.0, 30.0, 240.0, 2.0, 192.0, 0.0, 0.0, 0.0, 1.61253811272156E9, 2021-02-05 10:15:12.721
90.0, 0.0, 0.0, 61886.6796875, 88480.0234375, -31152.408203125, -4554.41357421875, 0.0, 0.0, -0.06800000369548798, 0.9900000691413879, 0.08800000697374344, 192.0, 0.0, 0.0, 0.0, 0.0, 0.0, 0.0, 0.0, 0.0, 0.0, 1.61253811278097E9, 2021-02-05 10:15:12.780
91.0, 0.0, 0.0, 61573.12890625, 88146.2265625, -30838.5, -3240.3994140625, 0.0, 0.0, -0.06800000369548798, 0.9900000691413879, 0.08800000697374344, 192.0, 0.0, 0.0, 0.0, 0.0, 0.0, 0.0, 0.0, 0.0, 0.0, 1.612538112780974E9, 2021-02-05 10:15:12.780
92.0, 0.0, 0.0, 61609.98828125, 88188.421875, -31077.953125, -2869.338134765625, 0.0, 0.0, -0.06800000369548798, 0.9900000691413879, 0.08800000697374344, 192.0, 0.0, 0.0, 0.0, 0.0, 0.0, 0.0, 0.0, 0.0, 0.0, 1.612538112780975E9, 2021-02-05 10:15:12.780
93.0, 0.0, 0.0, 61947.23046875, 88541.3828125, -31421.767578125, -4222.17724609375, 0.0, 0.0, -0.06800000369548798, 0.9900000691413879, 0.08800000697374344, 192.0, 0.0, 0.0, 0.0, 0.0, 0.0, 0.0, 0.0, 0.0, 0.0, 1.612538112780976E9, 2021-02-05 10:15:12.780
94.0, 0.0, 0.0, 61932.5234375, 88522.671875, -31216.35546875, -4679.60595703125, 0.0, 0.0, -0.06800000369548798, 0.9900000691413879, 0.08800000697374344, 192.0, 0.0, 0.0, 0.0, 0.0, 0.0, 0.0, 0.0, 0.0, 0.0, 1.61253811278099E9, 2021-02-05 10:15:12.780
95.0, 0.0, 0.0, 61618.953125, 88190.484375, -30849.787109375, -3491.498779296875, 0.0, 0.0, -0.06800000369548798, 0.9900000691413879, 0.08800000697374344, 192.0, 0.0, 0.0, 0.0, 0.0, 0.0, 0.0, 0.0, 0.0, 0.0, 1.612538112780991E9, 2021-02-05 10:15:12.780
96.0, 0.0, 0.0, 61572.23828125, 88145.6875, -30991.33984375, -2775.32666015625, 0.0, 0.0, -0.06800000369548798, 0.9900000691413879, 0.08800000697374344, 192.0, 0.0, 0.0, 0.0, 0.0, 0.0, 0.0, 0.0, 0.0, 0.0, 1.612538112780992E9, 2021-02-05 10:15:12.780
97.0, 0.0, 0.0, 61894.83984375, 88489.4140625, -31390.38671875, -3979.258544921875, 0.0, 0.0, -0.06800000369548798, 0.9900000691413879, 0.08800000697374344, 192.0, 0.0, 0.0, 0.0, 0.0, 0.0, 0.0, 0.0, 0.0, 0.0, 1.612538112780993E9, 2021-02-05 10:15:12.780
98.0, 0.0, 0.0, 61965.60546875, 88562.9765625, -31285.646484375, -4748.8515625, 0.0, 0.0, -0.06800000369548798, 0.9900000691413879, 0.08800000697374344, 192.0, 0.0, 0.0, 0.0, 0.0, 0.0, 0.0, 0.0, 0.0, 0.0, 1.612538112780994E9, 2021-02-05 10:15:12.780
99.0, 0.0, 0.0, 61662.71484375, 88237.3515625, -30893.08203125, -3739.64794921875, 0.0, 0.0, -0.06800000369548798, 0.9940000176429749, 0.09000000357627869, 192.0, 253.0, 224.0, 31.0, 16.0, 2.0, 208.0, 0.0, 0.0, 0.0, 1.612538112780995E9, 2021-02-05 10:15:12.780
100.0, 0.0, 0.0, 61549.21484375, 88113.90625, -30929.962890625, -2754.293701171875, 0.0, 0.0, -0.06800000369548798, 0.9940000176429749, 0.09000000357627869, 192.0, 0.0, 0.0, 0.0, 0.0, 0.0, 0.0, 0.0, 0.0, 0.0, 1.612538112780996E9, 2021-02-05 10:15:12.780
101.0, 0.0, 0.0, 61838.40234375, 88423.40625, -31349.662109375, -3717.9443359375, 0.0, 0.0, -0.06800000369548798, 0.9940000176429749, 0.09000000357627869, 192.0, 0.0, 0.0, 0.0, 0.0, 0.0, 0.0, 0.0, 0.0, 0.0, 1.612538112780997E9, 2021-02-05 10:15:12.780
102.0, 0.0, 0.0, 61981.921875, 88575.2421875, -31354.4453125, -4746.080078125, 0.0, 0.0, -0.06800000369548798, 0.9940000176429749, 0.09000000357627869, 192.0, 0.0, 0.0, 0.0, 0.0, 0.0, 0.0, 0.0, 0.0, 0.0, 1.612538112780998E9, 2021-02-05 10:15:12.780
103.0, 0.0, 0.0, 61713.12109375, 88288.8515625, -30960.16015625, -3985.49462890625, 0.0, 0.0, -0.06800000369548798, 0.9940000176429749, 0.09000000357627869, 192.0, 0.0, 0.0, 0.0, 0.0, 0.0, 0.0, 0.0, 0.0, 0.0, 1.612538112780999E9, 2021-02-05 10:15:12.780
104.0, 0.0, 0.0, 61521.5859375, 88092.671875, -30888.1875, -2790.078857421875, 0.0, 0.0, -0.06800000369548798, 0.9940000176429749, 0.09000000357627869, 192.0, 0.0, 0.0, 0.0, 0.0, 0.0, 0.0, 0.0, 0.0, 0.0, 1.612538112781E9, 2021-02-05 10:15:12.781
105.0, 0.0, 0.0, 61778.609375, 88366.8828125, -31298.7890625, -3445.610595703125, 0.0, 0.0, -0.06800000369548798, 0.9940000176429749, 0.09000000357627869, 192.0, 0.0, 0.0, 0.0, 0.0, 0.0, 0.0, 0.0, 0.0, 0.0, 1.612538112841089E9, 2021-02-05 10:15:12.841
106.0, 0.0, 0.0, 62004.49609375, 88606.3984375, -31402.099609375, -4684.232421875, 0.0, 0.0, -0.06800000369548798, 0.9940000176429749, 0.09000000357627869, 192.0, 0.0, 0.0, 0.0, 0.0, 0.0, 0.0, 0.0, 0.0, 0.0, 1.612538112841093E9, 2021-02-05 10:15:12.841
107.0, 0.0, 0.0, 61772.23828125, 88363.390625, -31025.91796875, -4211.671875, 0.0, 0.0, -0.06800000369548798, 0.9940000176429749, 0.09000000357627869, 192.0, 0.0, 0.0, 0.0, 0.0, 0.0, 0.0, 0.0, 0.0, 0.0, 1.612538112841095E9, 2021-02-05 10:15:12.841
108.0, 0.0, 0.0, 61519.328125, 88095.7734375, -30855.93359375, -2896.45068359375, 0.0, 0.0, -0.06800000369548798, 0.9940000176429749, 0.09000000357627869, 192.0, 0.0, 0.0, 0.0, 0.0, 0.0, 0.0, 0.0, 0.0, 0.0, 1.612538112841096E9, 2021-02-05 10:15:12.841
109.0, 0.0, 0.0, 61709.1171875, 88293.6796875, -31227.21875, -3202.89306640625, 0.0, 0.0, -0.06800000369548798, 0.984000027179718, 0.0860000029206276, 192.0, 253.0, 224.0, 30.0, 192.0, 2.0, 176.0, 0.0, 0.0, 0.0, 1.612538112841097E9, 2021-02-05 10:15:12.841
110.0, 0.0, 0.0, 61983.8671875, 88584.34375, -31433.279296875, -4559.62158203125, 0.0, 0.0, -0.06800000369548798, 0.984000027179718, 0.0860000029206276, 192.0, 0.0, 0.0, 0.0, 0.0, 0.0, 0.0, 0.0, 0.0, 0.0, 1.612538112841098E9, 2021-02-05 10:15:12.841
111.0, 0.0, 0.0, 61832.7890625, 88419.7890625, -31098.80859375, -4421.15234375, 0.0, 0.0, -0.06800000369548798, 0.984000027179718, 0.0860000029206276, 192.0, 0.0, 0.0, 0.0, 0.0, 0.0, 0.0, 0.0, 0.0, 0.0, 1.612538112841099E9, 2021-02-05 10:15:12.841
112.0, 0.0, 0.0, 61551.13671875, 88116.609375, -30843.775390625, -3082.35009765625, 0.0, 0.0, -0.06800000369548798, 0.984000027179718, 0.0860000029206276, 192.0, 0.0, 0.0, 0.0, 0.0, 0.0, 0.0, 0.0, 0.0, 0.0, 1.6125381128411E9, 2021-02-05 10:15:12.841
113.0, 0.0, 0.0, 61674.8984375, 88249.1953125, -31139.98046875, -3011.20458984375, 0.0, 0.0, -0.06800000369548798, 0.984000027179718, 0.0860000029206276, 192.0, 0.0, 0.0, 0.0, 0.0, 0.0, 0.0, 0.0, 0.0, 0.0, 1.612538112841116E9, 2021-02-05 10:15:12.841
114.0, 0.0, 0.0, 61984.76171875, 88574.5078125, -31429.3671875, -4400.1640625, 0.0, 0.0, -0.06800000369548798, 0.984000027179718, 0.0860000029206276, 192.0, 0.0, 0.0, 0.0, 0.0, 0.0, 0.0, 0.0, 0.0, 0.0, 1.612538112841117E9, 2021-02-05 10:15:12.841
115.0, 0.0, 0.0, 61892.24609375, 88472.875, -31171.83203125, -4586.5107421875, 0.0, 0.0, -0.06800000369548798, 0.984000027179718, 0.0860000029206276, 192.0, 0.0, 0.0, 0.0, 0.0, 0.0, 0.0, 0.0, 0.0, 0.0, 1.612538112841118E9, 2021-02-05 10:15:12.841
116.0, 0.0, 0.0, 61578.71875, 88139.4296875, -30845.2265625, -3301.732421875, 0.0, 0.0, -0.06800000369548798, 0.984000027179718, 0.0860000029206276, 192.0, 0.0, 0.0, 0.0, 0.0, 0.0, 0.0, 0.0, 0.0, 0.0, 1.612538112841119E9, 2021-02-05 10:15:12.841
117.0, 0.0, 0.0, 61600.30859375, 88167.328125, -31067.626953125, -2851.948486328125, 0.0, 0.0, -0.06800000369548798, 0.984000027179718, 0.0860000029206276, 192.0, 0.0, 0.0, 0.0, 0.0, 0.0, 0.0, 0.0, 0.0, 0.0, 1.612538112841125E9, 2021-02-05 10:15:12.841
118.0, 0.0, 0.0, 61926.17578125, 88514.1796875, -31426.39453125, -4168.37646484375, 0.0, 0.0, -0.06800000369548798, 0.984000027179718, 0.0860000029206276, 192.0, 0.0, 0.0, 0.0, 0.0, 0.0, 0.0, 0.0, 0.0, 0.0, 1.612538112841126E9, 2021-02-05 10:15:12.841
119.0, 0.0, 0.0, 61937.10546875, 88521.9609375, -31243.357421875, -4695.78857421875, 0.0, 0.0, -0.06800000369548798, 0.9880000352859497, 0.09200000762939453, 192.0, 253.0, 224.0, 30.0, 224.0, 2.0, 224.0, 0.0, 0.0, 0.0, 1.612538112841128E9, 2021-02-05 10:15:12.841
120.0, 0.0, 0.0, 61632.2734375, 88198.1953125, -30863.599609375, -3547.244140625, 0.0, 0.0, -0.06800000369548798, 0.9880000352859497, 0.09200000762939453, 192.0, 0.0, 0.0, 0.0, 0.0, 0.0, 0.0, 0.0, 0.0, 0.0, 1.612538112901391E9, 2021-02-05 10:15:12.901
121.0, 0.0, 0.0, 61565.12890625, 88136.28125, -30977.974609375, -2765.71533203125, 0.0, 0.0, -0.06800000369548798, 0.9880000352859497, 0.09200000762939453, 192.0, 0.0, 0.0, 0.0, 0.0, 0.0, 0.0, 0.0, 0.0, 0.0, 1.612538112901395E9, 2021-02-05 10:15:12.901
122.0, 0.0, 0.0, 61879.5078125, 88473.296875, -31391.458984375, -3920.451171875, 0.0, 0.0, -0.06800000369548798, 0.9880000352859497, 0.09200000762939453, 192.0, 0.0, 0.0, 0.0, 0.0, 0.0, 0.0, 0.0, 0.0, 0.0, 1.612538112901396E9, 2021-02-05 10:15:12.901
123.0, 0.0, 0.0, 61971.7734375, 88568.828125, -31308.623046875, -4741.52001953125, 0.0, 0.0, -0.06800000369548798, 0.9880000352859497, 0.09200000762939453, 192.0, 0.0, 0.0, 0.0, 0.0, 0.0, 0.0, 0.0, 0.0, 0.0, 1.612538112901397E9, 2021-02-05 10:15:12.901
124.0, 0.0, 0.0, 61675.14453125, 88253.46875, -30912.484375, -3780.73046875, 0.0, 0.0, -0.06800000369548798, 0.9880000352859497, 0.09200000762939453, 192.0, 0.0, 0.0, 0.0, 0.0, 0.0, 0.0, 0.0, 0.0, 0.0, 1.612538112901398E9, 2021-02-05 10:15:12.901
125.0, 0.0, 0.0, 61534.44140625, 88108.25, -30933.001953125, -2739.675537109375, 0.0, 0.0, -0.06800000369548798, 0.9880000352859497, 0.09200000762939453, 192.0, 0.0, 0.0, 0.0, 0.0, 0.0, 0.0, 0.0, 0.0, 0.0, 1.612538112901399E9, 2021-02-05 10:15:12.901
126.0, 0.0, 0.0, 61834.48828125, 88426.1796875, -31348.56640625, -3652.69970703125, 0.0, 0.0, -0.06800000369548798, 0.9880000352859497, 0.09200000762939453, 192.0, 0.0, 0.0, 0.0, 0.0, 0.0, 0.0, 0.0, 0.0, 0.0, 1.6125381129014E9, 2021-02-05 10:15:12.901
127.0, 0.0, 0.0, 61996.65234375, 88591.828125, -31369.15234375, -4731.685546875, 0.0, 0.0, -0.06800000369548798, 0.9880000352859497, 0.09200000762939453, 192.0, 0.0, 0.0, 0.0, 0.0, 0.0, 0.0, 0.0, 0.0, 0.0, 1.612538112901401E9, 2021-02-05 10:15:12.901
128.0, 0.0, 0.0, 61737.7734375, 88312.09375, -30972.029296875, -4034.48974609375, 0.0, 0.0, -0.06800000369548798, 0.9880000352859497, 0.09200000762939453, 192.0, 0.0, 0.0, 0.0, 0.0, 0.0, 0.0, 0.0, 0.0, 0.0, 1.612538112901402E9, 2021-02-05 10:15:12.901
129.0, 0.0, 0.0, 61525.27734375, 88093.3203125, -30876.140625, -2811.201171875, 0.0, 0.0, -0.06800000369548798, 0.9920000433921814, 0.09200000762939453, 192.0, 253.0, 224.0, 31.0, 0.0, 2.0, 224.0, 0.0, 0.0, 0.0, 1.612538112901403E9, 2021-02-05 10:15:12.901
130.0, 0.0, 0.0, 61771.12109375, 88351.8359375, -31274.783203125, -3404.39404296875, 0.0, 0.0, -0.06800000369548798, 0.9920000433921814, 0.09200000762939453, 192.0, 0.0, 0.0, 0.0, 0.0, 0.0, 0.0, 0.0, 0.0, 0.0, 1.612538112901404E9, 2021-02-05 10:15:12.901
131.0, 0.0, 0.0, 62002.0390625, 88592.8828125, -31393.11328125, -4678.60009765625, 0.0, 0.0, -0.06800000369548798, 0.9920000433921814, 0.09200000762939453, 192.0, 0.0, 0.0, 0.0, 0.0, 0.0, 0.0, 0.0, 0.0, 0.0, 1.612538112901405E9, 2021-02-05 10:15:12.901
132.0, 0.0, 0.0, 61787.68359375, 88360.46875, -31021.6953125, -4279.35302734375, 0.0, 0.0, -0.06800000369548798, 0.9920000433921814, 0.09200000762939453, 192.0, 0.0, 0.0, 0.0, 0.0, 0.0, 0.0, 0.0, 0.0, 0.0, 1.612538112901406E9, 2021-02-05 10:15:12.901
133.0, 0.0, 0.0, 61521.5859375, 88077.5390625, -30837.60546875, -2949.02197265625, 0.0, 0.0, -0.06800000369548798, 0.9920000433921814, 0.09200000762939453, 192.0, 0.0, 0.0, 0.0, 0.0, 0.0, 0.0, 0.0, 0.0, 0.0, 1.612538112901407E9, 2021-02-05 10:15:12.901
134.0, 0.0, 0.0, 61704.69140625, 88273.15625, -31192.685546875, -3173.232421875, 0.0, 0.0, -0.06800000369548798, 0.9920000433921814, 0.09200000762939453, 192.0, 0.0, 0.0, 0.0, 0.0, 0.0, 0.0, 0.0, 0.0, 0.0, 1.612538112901409E9, 2021-02-05 10:15:12.901
135.0, 0.0, 0.0, 61990.55078125, 88575.109375, -31415.80078125, -4551.2841796875, 0.0, 0.0, -0.06800000369548798, 0.9920000433921814, 0.09200000762939453, 192.0, 0.0, 0.0, 0.0, 0.0, 0.0, 0.0, 0.0, 0.0, 0.0, 1.612538112961737E9, 2021-02-05 10:15:12.961
136.0, 0.0, 0.0, 61854.49609375, 88430.3125, -31092.548828125, -4473.9697265625, 0.0, 0.0, -0.06800000369548798, 0.9920000433921814, 0.09200000762939453, 192.0, 0.0, 0.0, 0.0, 0.0, 0.0, 0.0, 0.0, 0.0, 0.0, 1.61253811296174E9, 2021-02-05 10:15:12.961
137.0, 0.0, 0.0, 61553.03515625, 88112.7421875, -30820.216796875, -3132.52978515625, 0.0, 0.0, -0.06800000369548798, 0.9920000433921814, 0.09200000762939453, 192.0, 0.0, 0.0, 0.0, 0.0, 0.0, 0.0, 0.0, 0.0, 0.0, 1.612538112961741E9, 2021-02-05 10:15:12.961
138.0, 0.0, 0.0, 61640.85546875, 88207.421875, -31119.326171875, -2967.9091796875, 0.0, 0.0, -0.06800000369548798, 0.9920000433921814, 0.09200000762939453, 192.0, 0.0, 0.0, 0.0, 0.0, 0.0, 0.0, 0.0, 0.0, 0.0, 1.612538112961743E9, 2021-02-05 10:15:12.961
139.0, 0.0, 0.0, 61964.1953125, 88556.3359375, -31423.35546875, -4359.6181640625, 0.0, 0.0, -0.06800000369548798, 0.9920000433921814, 0.09200000762939453, 192.0, 0.0, 0.0, 0.0, 0.0, 0.0, 0.0, 0.0, 0.0, 0.0, 1.612538112961744E9, 2021-02-05 10:15:12.961
140.0, 0.0, 0.0, 61905.0078125, 88489.3046875, -31171.96484375, -4619.703125, 0.0, 0.0, -0.07200000435113907, 0.9880000352859497, 0.09400000423192978, 192.0, 253.0, 192.0, 30.0, 224.0, 2.0, 240.0, 0.0, 0.0, 0.0, 1.612538112961753E9, 2021-02-05 10:15:12.961
141.0, 0.0, 0.0, 61581.82421875, 88148.3046875, -30837.13671875, -3347.598388671875, 0.0, 0.0, -0.07200000435113907, 0.9880000352859497, 0.09400000423192978, 192.0, 0.0, 0.0, 0.0, 0.0, 0.0, 0.0, 0.0, 0.0, 0.0, 1.612538112961754E9, 2021-02-05 10:15:12.961
142.0, 0.0, 0.0, 61599.66015625, 88173.3828125, -31032.958984375, -2830.66943359375, 0.0, 0.0, -0.07200000435113907, 0.9880000352859497, 0.09400000423192978, 192.0, 0.0, 0.0, 0.0, 0.0, 0.0, 0.0, 0.0, 0.0, 0.0, 1.612538112961755E9, 2021-02-05 10:15:12.961
143.0, 0.0, 0.0, 61919.828125, 88509.953125, -31403.685546875, -4121.326171875, 0.0, 0.0, -0.07200000435113907, 0.9880000352859497, 0.09400000423192978, 192.0, 0.0, 0.0, 0.0, 0.0, 0.0, 0.0, 0.0, 0.0, 0.0, 1.612538112961756E9, 2021-02-05 10:15:12.961
144.0, 0.0, 0.0, 61940.8828125, 88525.78125, -31247.021484375, -4702.2255859375, 0.0, 0.0, -0.07200000435113907, 0.9880000352859497, 0.09400000423192978, 192.0, 0.0, 0.0, 0.0, 0.0, 0.0, 0.0, 0.0, 0.0, 0.0, 1.612538112961757E9, 2021-02-05 10:15:12.961
145.0, 0.0, 0.0, 61628.18359375, 88193.7890625, -30864.5390625, -3583.4091796875, 0.0, 0.0, -0.07200000435113907, 0.9880000352859497, 0.09400000423192978, 192.0, 0.0, 0.0, 0.0, 0.0, 0.0, 0.0, 0.0, 0.0, 0.0, 1.612538112961758E9, 2021-02-05 10:15:12.961
146.0, 0.0, 0.0, 61549.23828125, 88111.1796875, -30961.568359375, -2747.8115234375, 0.0, 0.0, -0.07200000435113907, 0.9880000352859497, 0.09400000423192978, 192.0, 0.0, 0.0, 0.0, 0.0, 0.0, 0.0, 0.0, 0.0, 0.0, 1.612538112961759E9, 2021-02-05 10:15:12.961
147.0, 0.0, 0.0, 61858.94140625, 88448.84375, -31372.99609375, -3862.26953125, 0.0, 0.0, -0.07200000435113907, 0.9880000352859497, 0.09400000423192978, 192.0, 0.0, 0.0, 0.0, 0.0, 0.0, 0.0, 0.0, 0.0, 0.0, 1.61253811296176E9, 2021-02-05 10:15:12.961
148.0, 0.0, 0.0, 61964.66796875, 88559.53125, -31311.328125, -4749.611328125, 0.0, 0.0, -0.07200000435113907, 0.9880000352859497, 0.09400000423192978, 192.0, 0.0, 0.0, 0.0, 0.0, 0.0, 0.0, 0.0, 0.0, 0.0, 1.612538112961761E9, 2021-02-05 10:15:12.961
149.0, 0.0, 0.0, 61669.4453125, 88236.328125, -30914.294921875, -3845.39404296875, 0.0, 0.0, -0.07200000435113907, 0.9880000352859497, 0.09400000423192978, 192.0, 0.0, 0.0, 0.0, 0.0, 0.0, 0.0, 0.0, 0.0, 0.0, 1.612538112961762E9, 2021-02-05 10:15:12.961
150.0, 0.0, 0.0, 61522.19140625, 88083.4375, -30905.3984375, -2768.50927734375, 0.0, 0.0, -0.06400000303983688, 0.9860000610351562, 0.09600000083446503, 192.0, 254.0, 0.0, 30.0, 208.0, 3.0, 0.0, 0.0, 0.0, 0.0, 1.612538113022172E9, 2021-02-05 10:15:13.022
151.0, 0.0, 0.0, 61803.30859375, 88381.390625, -31323.666015625, -3607.951416015625, 0.0, 0.0, -0.06400000303983688, 0.9860000610351562, 0.09600000083446503, 192.0, 0.0, 0.0, 0.0, 0.0, 0.0, 0.0, 0.0, 0.0, 0.0, 1.612538113022175E9, 2021-02-05 10:15:13.022
152.0, 0.0, 0.0, 61988.3125, 88577.5234375, -31368.68359375, -4734.6806640625, 0.0, 0.0, -0.06400000303983688, 0.9860000610351562, 0.09600000083446503, 192.0, 0.0, 0.0, 0.0, 0.0, 0.0, 0.0, 0.0, 0.0, 0.0, 1.612538113022176E9, 2021-02-05 10:15:13.022
153.0, 0.0, 0.0, 61748.9921875, 88321.1953125, -30969.771484375, -4105.7021484375, 0.0, 0.0, -0.06400000303983688, 0.9860000610351562, 0.09600000083446503, 192.0, 0.0, 0.0, 0.0, 0.0, 0.0, 0.0, 0.0, 0.0, 0.0, 1.612538113022178E9, 2021-02-05 10:15:13.022
154.0, 0.0, 0.0, 61516.53515625, 88079.1015625, -30856.73828125, -2845.444091796875, 0.0, 0.0, -0.06400000303983688, 0.9860000610351562, 0.09600000083446503, 192.0, 0.0, 0.0, 0.0, 0.0, 0.0, 0.0, 0.0, 0.0, 0.0, 1.612538113022179E9, 2021-02-05 10:15:13.022
155.0, 0.0, 0.0, 61730.8671875, 88312.7421875, -31255.494140625, -3338.5458984375, 0.0, 0.0, -0.06400000303983688, 0.9860000610351562, 0.09600000083446503, 192.0, 0.0, 0.0, 0.0, 0.0, 0.0, 0.0, 0.0, 0.0, 0.0, 1.61253811302218E9, 2021-02-05 10:15:13.022
156.0, 0.0, 0.0, 61984.24609375, 88578.2421875, -31401.25, -4639.8642578125, 0.0, 0.0, -0.06400000303983688, 0.9860000610351562, 0.09600000083446503, 192.0, 0.0, 0.0, 0.0, 0.0, 0.0, 0.0, 0.0, 0.0, 0.0, 1.612538113022181E9, 2021-02-05 10:15:13.022
157.0, 0.0, 0.0, 61806.953125, 88386.2578125, -31028.779296875, -4328.83984375, 0.0, 0.0, -0.06400000303983688, 0.9860000610351562, 0.09600000083446503, 192.0, 0.0, 0.0, 0.0, 0.0, 0.0, 0.0, 0.0, 0.0, 0.0, 1.612538113022182E9, 2021-02-05 10:15:13.022
158.0, 0.0, 0.0, 61519.0625, 88084.1953125, -30826.09375, -2983.130859375, 0.0, 0.0, -0.06400000303983688, 0.9860000610351562, 0.09600000083446503, 192.0, 0.0, 0.0, 0.0, 0.0, 0.0, 0.0, 0.0, 0.0, 0.0, 1.612538113022183E9, 2021-02-05 10:15:13.022
159.0, 0.0, 0.0, 61692.5546875, 88267.328125, -31168.478515625, -3127.0537109375, 0.0, 0.0, -0.06400000303983688, 0.9860000610351562, 0.09600000083446503, 192.0, 0.0, 0.0, 0.0, 0.0, 0.0, 0.0, 0.0, 0.0, 0.0, 1.612538113022185E9, 2021-02-05 10:15:13.022
160.0, 0.0, 0.0, 61971.4609375, 88559.84375, -31414.81640625, -4497.998046875, 0.0, 0.0, -0.06000000238418579, 0.9880000352859497, 0.09600000083446503, 192.0, 254.0, 32.0, 30.0, 224.0, 3.0, 0.0, 0.0, 0.0, 0.0, 1.612538113022186E9, 2021-02-05 10:15:13.022
161.0, 0.0, 0.0, 61856.21484375, 88434.3125, -31108.3515625, -4497.9306640625, 0.0, 0.0, -0.06000000238418579, 0.9880000352859497, 0.09600000083446503, 192.0, 0.0, 0.0, 0.0, 0.0, 0.0, 0.0, 0.0, 0.0, 0.0, 1.612538113022187E9, 2021-02-05 10:15:13.022
162.0, 0.0, 0.0, 61551.8515625, 88108.921875, -30818.31640625, -3167.8232421875, 0.0, 0.0, -0.06000000238418579, 0.9880000352859497, 0.09600000083446503, 192.0, 0.0, 0.0, 0.0, 0.0, 0.0, 0.0, 0.0, 0.0, 0.0, 1.612538113022188E9, 2021-02-05 10:15:13.022
163.0, 0.0, 0.0, 61625.0078125, 88193.40625, -31095.119140625, -2931.3193359375, 0.0, 0.0, -0.06000000238418579, 0.9880000352859497, 0.09600000083446503, 192.0, 0.0, 0.0, 0.0, 0.0, 0.0, 0.0, 0.0, 0.0, 0.0, 1.612538113022196E9, 2021-02-05 10:15:13.022
164.0, 0.0, 0.0, 61930.2890625, 88519.6328125, -31426.640625, -4298.642578125, 0.0, 0.0, -0.06000000238418579, 0.9880000352859497, 0.09600000083446503, 192.0, 0.0, 0.0, 0.0, 0.0, 0.0, 0.0, 0.0, 0.0, 0.0, 1.612538113022198E9, 2021-02-05 10:15:13.022
165.0, 0.0, 0.0, 61897.07421875, 88476.25, -31197.78125, -4635.77392578125, 0.0, 0.0, -0.06000000238418579, 0.9880000352859497, 0.09600000083446503, 192.0, 0.0, 0.0, 0.0, 0.0, 0.0, 0.0, 0.0, 0.0, 0.0, 1.612538113080866E9, 2021-02-05 10:15:13.080
166.0, 0.0, 0.0, 61586.921875, 88137.796875, -30853.474609375, -3393.039306640625, 0.0, 0.0, -0.06000000238418579, 0.9880000352859497, 0.09600000083446503, 192.0, 0.0, 0.0, 0.0, 0.0, 0.0, 0.0, 0.0, 0.0, 0.0, 1.612538113080869E9, 2021-02-05 10:15:13.080
167.0, 0.0, 0.0, 61581.0859375, 88143.7890625, -31028.109375, -2807.870849609375, 0.0, 0.0, -0.06000000238418579, 0.9880000352859497, 0.09600000083446503, 192.0, 0.0, 0.0, 0.0, 0.0, 0.0, 0.0, 0.0, 0.0, 0.0, 1.612538113080871E9, 2021-02-05 10:15:13.080
168.0, 0.0, 0.0, 61911.671875, 88498.46875, -31403.55078125, -4072.68896484375, 0.0, 0.0, -0.06000000238418579, 0.9880000352859497, 0.09600000083446503, 192.0, 0.0, 0.0, 0.0, 0.0, 0.0, 0.0, 0.0, 0.0, 0.0, 1.612538113080872E9, 2021-02-05 10:15:13.080
169.0, 0.0, 0.0, 61949.17578125, 88535.4375, -31261.39453125, -4721.31396484375, 0.0, 0.0, -0.06000000238418579, 0.9880000352859497, 0.09600000083446503, 192.0, 0.0, 0.0, 0.0, 0.0, 0.0, 0.0, 0.0, 0.0, 0.0, 1.612538113080873E9, 2021-02-05 10:15:13.080
170.0, 0.0, 0.0, 61643.91796875, 88204.5390625, -30867.982421875, -3637.791015625, 0.0, 0.0, -0.06000000238418579, 0.9940000176429749, 0.09200000762939453, 192.0, 254.0, 32.0, 31.0, 16.0, 2.0, 224.0, 0.0, 0.0, 0.0, 1.612538113080875E9, 2021-02-05 10:15:13.080
171.0, 0.0, 0.0, 61555.5625, 88110.8828125, -30941.33984375, -2745.196533203125, 0.0, 0.0, -0.06000000238418579, 0.9940000176429749, 0.09200000762939453, 192.0, 0.0, 0.0, 0.0, 0.0, 0.0, 0.0, 0.0, 0.0, 0.0, 1.612538113080876E9, 2021-02-05 10:15:13.080
172.0, 0.0, 0.0, 61872.64453125, 88454.3203125, -31349.349609375, -3813.453369140625, 0.0, 0.0, -0.06000000238418579, 0.9940000176429749, 0.09200000762939453, 192.0, 0.0, 0.0, 0.0, 0.0, 0.0, 0.0, 0.0, 0.0, 0.0, 1.612538113080877E9, 2021-02-05 10:15:13.080
173.0, 0.0, 0.0, 61991.17578125, 88576.96875, -31309.763671875, -4755.33349609375, 0.0, 0.0, -0.06000000238418579, 0.9940000176429749, 0.09200000762939453, 192.0, 0.0, 0.0, 0.0, 0.0, 0.0, 0.0, 0.0, 0.0, 0.0, 1.612538113080879E9, 2021-02-05 10:15:13.080
174.0, 0.0, 0.0, 61700.9140625, 88267.2578125, -30913.244140625, -3908.35888671875, 0.0, 0.0, -0.06000000238418579, 0.9940000176429749, 0.09200000762939453, 192.0, 0.0, 0.0, 0.0, 0.0, 0.0, 0.0, 0.0, 0.0, 0.0, 1.61253811308088E9, 2021-02-05 10:15:13.080
175.0, 0.0, 0.0, 61532.80859375, 88088.203125, -30879.158203125, -2780.2216796875, 0.0, 0.0, -0.06000000238418579, 0.9940000176429749, 0.09200000762939453, 192.0, 0.0, 0.0, 0.0, 0.0, 0.0, 0.0, 0.0, 0.0, 0.0, 1.612538113080881E9, 2021-02-05 10:15:13.080
176.0, 0.0, 0.0, 61813.7265625, 88385.3671875, -31295.033203125, -3560.34228515625, 0.0, 0.0, -0.06000000238418579, 0.9940000176429749, 0.09200000762939453, 192.0, 0.0, 0.0, 0.0, 0.0, 0.0, 0.0, 0.0, 0.0, 0.0, 1.612538113080882E9, 2021-02-05 10:15:13.080
177.0, 0.0, 0.0, 62001.81640625, 88585.125, -31361.41796875, -4723.52685546875, 0.0, 0.0, -0.06000000238418579, 0.9940000176429749, 0.09200000762939453, 192.0, 0.0, 0.0, 0.0, 0.0, 0.0, 0.0, 0.0, 0.0, 0.0, 1.612538113080884E9, 2021-02-05 10:15:13.080
178.0, 0.0, 0.0, 61763.94921875, 88331.8359375, -30973.4140625, -4146.38232421875, 0.0, 0.0, -0.06000000238418579, 0.9940000176429749, 0.09200000762939453, 192.0, 0.0, 0.0, 0.0, 0.0, 0.0, 0.0, 0.0, 0.0, 0.0, 1.612538113080885E9, 2021-02-05 10:15:13.080
179.0, 0.0, 0.0, 61539.40234375, 88092.109375, -30840.6015625, -2873.920166015625, 0.0, 0.0, -0.06000000238418579, 0.9940000176429749, 0.09200000762939453, 192.0, 0.0, 0.0, 0.0, 0.0, 0.0, 0.0, 0.0, 0.0, 0.0, 1.612538113080886E9, 2021-02-05 10:15:13.080
180.0, 0.0, 0.0, 61750.78125, 88318.78125, -31229.119140625, -3304.794677734375, 0.0, 0.0, -0.06599999964237213, 0.9900000691413879, 0.09200000762939453, 192.0, 253.0, 240.0, 30.0, 240.0, 2.0, 224.0, 0.0, 0.0, 0.0, 1.612538113141149E9, 2021-02-05 10:15:13.141
181.0, 0.0, 0.0, 61991.19921875, 88571.265625, -31408.89453125, -4616.99853515625, 0.0, 0.0, -0.06599999964237213, 0.9900000691413879, 0.09200000762939453, 192.0, 0.0, 0.0, 0.0, 0.0, 0.0, 0.0, 0.0, 0.0, 0.0, 1.612538113141151E9, 2021-02-05 10:15:13.141
182.0, 0.0, 0.0, 61826.46484375, 88395.0703125, -31053.814453125, -4355.9970703125, 0.0, 0.0, -0.06599999964237213, 0.9900000691413879, 0.09200000762939453, 192.0, 0.0, 0.0, 0.0, 0.0, 0.0, 0.0, 0.0, 0.0, 0.0, 1.612538113141152E9, 2021-02-05 10:15:13.141
183.0, 0.0, 0.0, 61550.48828125, 88102.5703125, -30825.0, -3014.37841796875, 0.0, 0.0, -0.06599999964237213, 0.9900000691413879, 0.09200000762939453, 192.0, 0.0, 0.0, 0.0, 0.0, 0.0, 0.0, 0.0, 0.0, 0.0, 1.612538113141154E9, 2021-02-05 10:15:13.141
184.0, 0.0, 0.0, 61680.23828125, 88251.65625, -31152.51953125, -3068.715576171875, 0.0, 0.0, -0.06599999964237213, 0.9900000691413879, 0.09200000762939453, 192.0, 0.0, 0.0, 0.0, 0.0, 0.0, 0.0, 0.0, 0.0, 0.0, 1.612538113141155E9, 2021-02-05 10:15:13.141
185.0, 0.0, 0.0, 61972.8671875, 88557.1171875, -31417.1640625, -4450.947265625, 0.0, 0.0, -0.06599999964237213, 0.9900000691413879, 0.09200000762939453, 192.0, 0.0, 0.0, 0.0, 0.0, 0.0, 0.0, 0.0, 0.0, 0.0, 1.612538113141156E9, 2021-02-05 10:15:13.141
186.0, 0.0, 0.0, 61876.53125, 88445.7578125, -31126.12109375, -4529.3125, 0.0, 0.0, -0.06599999964237213, 0.9900000691413879, 0.09200000762939453, 192.0, 0.0, 0.0, 0.0, 0.0, 0.0, 0.0, 0.0, 0.0, 0.0, 1.612538113141157E9, 2021-02-05 10:15:13.141
187.0, 0.0, 0.0, 61559.02734375, 88111.5546875, -30830.228515625, -3213.264404296875, 0.0, 0.0, -0.06599999964237213, 0.9900000691413879, 0.09200000762939453, 192.0, 0.0, 0.0, 0.0, 0.0, 0.0, 0.0, 0.0, 0.0, 0.0, 1.612538113141163E9, 2021-02-05 10:15:13.141
188.0, 0.0, 0.0, 61622.19140625, 88180.5546875, -31083.697265625, -2900.317626953125, 0.0, 0.0, -0.06599999964237213, 0.9900000691413879, 0.09200000762939453, 192.0, 0.0, 0.0, 0.0, 0.0, 0.0, 0.0, 0.0, 0.0, 0.0, 1.612538113141164E9, 2021-02-05 10:15:13.141
189.0, 0.0, 0.0, 61944.1484375, 88522.875, -31427.53515625, -4255.861328125, 0.0, 0.0, -0.06599999964237213, 0.9900000691413879, 0.09200000762939453, 192.0, 0.0, 0.0, 0.0, 0.0, 0.0, 0.0, 0.0, 0.0, 0.0, 1.612538113141165E9, 2021-02-05 10:15:13.141
190.0, 0.0, 0.0, 61921.39453125, 88493.125, -31211.505859375, -4658.86328125, 0.0, 0.0, -0.06599999964237213, 0.9900000691413879, 0.09200000762939453, 192.0, 0.0, 0.0, 0.0, 0.0, 0.0, 0.0, 0.0, 0.0, 0.0, 1.612538113141166E9, 2021-02-05 10:15:13.141
191.0, 0.0, 0.0, 61603.68359375, 88151.7890625, -30854.34765625, -3444.76123046875, 0.0, 0.0, -0.07000000029802322, 0.9860000610351562, 0.09400000423192978, 192.0, 253.0, 208.0, 30.0, 208.0, 2.0, 240.0, 0.0, 0.0, 0.0, 1.612538113141167E9, 2021-02-05 10:15:13.141
192.0, 0.0, 0.0, 61589.515625, 88142.3828125, -31006.47265625, -2796.448974609375, 0.0, 0.0, -0.07000000029802322, 0.9860000610351562, 0.09400000423192978, 192.0, 0.0, 0.0, 0.0, 0.0, 0.0, 0.0, 0.0, 0.0, 0.0, 1.612538113141168E9, 2021-02-05 10:15:13.141
193.0, 0.0, 0.0, 61914.3984375, 88487.8515625, -31389.044921875, -4020.11767578125, 0.0, 0.0, -0.07000000029802322, 0.9860000610351562, 0.09400000423192978, 192.0, 0.0, 0.0, 0.0, 0.0, 0.0, 0.0, 0.0, 0.0, 0.0, 1.612538113141169E9, 2021-02-05 10:15:13.141
194.0, 0.0, 0.0, 61968.28515625, 88541.203125, -31268.79296875, -4733.2275390625, 0.0, 0.0, -0.07000000029802322, 0.9860000610351562, 0.09400000423192978, 192.0, 0.0, 0.0, 0.0, 0.0, 0.0, 0.0, 0.0, 0.0, 0.0, 1.61253811314117E9, 2021-02-05 10:15:13.141
195.0, 0.0, 0.0, 61655.71875, 88210.2421875, -30875.58203125, -3697.04541015625, 0.0, 0.0, -0.07000000029802322, 0.9860000610351562, 0.09400000423192978, 192.0, 0.0, 0.0, 0.0, 0.0, 0.0, 0.0, 0.0, 0.0, 0.0, 1.612538113201394E9, 2021-02-05 10:15:13.201
196.0, 0.0, 0.0, 61551.94140625, 88104.046875, -30927.68359375, -2750.6279296875, 0.0, 0.0, -0.07000000029802322, 0.9860000610351562, 0.09400000423192978, 192.0, 0.0, 0.0, 0.0, 0.0, 0.0, 0.0, 0.0, 0.0, 0.0, 1.612538113201397E9, 2021-02-05 10:15:13.201
197.0, 0.0, 0.0, 61843.6328125, 88444.734375, -31344.3203125, -3752.7236328125, 0.0, 0.0, -0.07000000029802322, 0.9860000610351562, 0.09400000423192978, 192.0, 0.0, 0.0, 0.0, 0.0, 0.0, 0.0, 0.0, 0.0, 0.0, 1.612538113201398E9, 2021-02-05 10:15:13.201
198.0, 0.0, 0.0, 61982.6796875, 88668.359375, -31330.349609375, -4742.0341796875, 0.0, 0.0, -0.07000000029802322, 0.9860000610351562, 0.09400000423192978, 192.0, 0.0, 0.0, 0.0, 0.0, 0.0, 0.0, 0.0, 0.0, 0.0, 1.612538113201399E9, 2021-02-05 10:15:13.201
199.0, 0.0, 0.0, 61713.56640625, 88401.859375, -30922.5859375, -3950.8046875, 0.0, 0.0, -0.07000000029802322, 0.9860000610351562, 0.09400000423192978, 192.0, 0.0, 0.0, 0.0, 0.0, 0.0, 0.0, 0.0, 0.0, 0.0, 1.6125381132014E9, 2021-02-05 10:15:13.201
200.0, 0.0, 0.0, 61531.64453125, 88215.46875, -30863.890625, -2783.216796875, 0.0, 0.0, -0.07000000029802322, 0.9860000610351562, 0.09400000423192978, 192.0, 0.0, 0.0, 0.0, 0.0, 0.0, 0.0, 0.0, 0.0, 0.0, 1.612538113201401E9, 2021-02-05 10:15:13.201
201.0, 0.0, 0.0, 61788.109375, 88496.0078125, -31271.20703125, -3485.620361328125, 0.0, 0.0, -0.06400000303983688, 0.9860000610351562, 0.09000000357627869, 192.0, 254.0, 0.0, 30.0, 208.0, 2.0, 208.0, 0.0, 0.0, 0.0, 1.612538113201402E9, 2021-02-05 10:15:13.201
202.0, 0.0, 0.0, 62001.90234375, 88720.75, -31356.970703125, -4697.59912109375, 0.0, 0.0, -0.06400000303983688, 0.9860000610351562, 0.09000000357627869, 192.0, 0.0, 0.0, 0.0, 0.0, 0.0, 0.0, 0.0, 0.0, 0.0, 1.612538113201403E9, 2021-02-05 10:15:13.201
203.0, 0.0, 0.0, 61779.28125, 88480.4296875, -30970.419921875, -4192.494140625, 0.0, 0.0, -0.06400000303983688, 0.9860000610351562, 0.09000000357627869, 192.0, 0.0, 0.0, 0.0, 0.0, 0.0, 0.0, 0.0, 0.0, 0.0, 1.612538113201404E9, 2021-02-05 10:15:13.201
204.0, 0.0, 0.0, 61529.12109375, 88213.4609375, -30816.03515625, -2888.27001953125, 0.0, 0.0, -0.06400000303983688, 0.9860000610351562, 0.09000000357627869, 192.0, 0.0, 0.0, 0.0, 0.0, 0.0, 0.0, 0.0, 0.0, 0.0, 1.612538113201406E9, 2021-02-05 10:15:13.201
205.0, 0.0, 0.0, 61719.1328125, 88414.625, -31207.326171875, -3229.648193359375, 0.0, 0.0, -0.06400000303983688, 0.9860000610351562, 0.09000000357627869, 192.0, 0.0, 0.0, 0.0, 0.0, 0.0, 0.0, 0.0, 0.0, 0.0, 1.612538113201407E9, 2021-02-05 10:15:13.201
206.0, 0.0, 0.0, 61981.67578125, 88700.96875, -31400.087890625, -4571.087890625, 0.0, 0.0, -0.06400000303983688, 0.9860000610351562, 0.09000000357627869, 192.0, 0.0, 0.0, 0.0, 0.0, 0.0, 0.0, 0.0, 0.0, 0.0, 1.612538113201408E9, 2021-02-05 10:15:13.201
207.0, 0.0, 0.0, 61816.96484375, 88527.921875, -31066.30859375, -4376.2255859375, 0.0, 0.0, -0.06400000303983688, 0.9860000610351562, 0.09000000357627869, 192.0, 0.0, 0.0, 0.0, 0.0, 0.0, 0.0, 0.0, 0.0, 0.0, 1.612538113201409E9, 2021-02-05 10:15:13.201
208.0, 0.0, 0.0, 61542.0390625, 88235.7421875, -30820.796875, -3040.217041015625, 0.0, 0.0, -0.06400000303983688, 0.9860000610351562, 0.09000000357627869, 192.0, 0.0, 0.0, 0.0, 0.0, 0.0, 0.0, 0.0, 0.0, 0.0, 1.61253811320141E9, 2021-02-05 10:15:13.201
209.0, 0.0, 0.0, 61673.51171875, 88375.953125, -31132.984375, -3020.748779296875, 0.0, 0.0, -0.06400000303983688, 0.9860000610351562, 0.09000000357627869, 192.0, 0.0, 0.0, 0.0, 0.0, 0.0, 0.0, 0.0, 0.0, 0.0, 1.612538113201411E9, 2021-02-05 10:15:13.201
210.0, 0.0, 0.0, 61983.015625, 88703.7421875, -31412.380859375, -4416.3916015625, 0.0, 0.0, -0.06400000303983688, 0.9860000610351562, 0.09000000357627869, 192.0, 0.0, 0.0, 0.0, 0.0, 0.0, 0.0, 0.0, 0.0, 0.0, 1.612538113261768E9, 2021-02-05 10:15:13.261
211.0, 0.0, 0.0, 61884.6015625, 88597.9765625, -31142.103515625, -4559.1298828125, 0.0, 0.0, -0.06000000238418579, 0.984000027179718, 0.09000000357627869, 192.0, 254.0, 32.0, 30.0, 192.0, 2.0, 208.0, 0.0, 0.0, 0.0, 1.612538113261771E9, 2021-02-05 10:15:13.261
212.0, 0.0, 0.0, 61560.90234375, 88257.890625, -30838.947265625, -3249.205810546875, 0.0, 0.0, -0.06000000238418579, 0.984000027179718, 0.09000000357627869, 192.0, 0.0, 0.0, 0.0, 0.0, 0.0, 0.0, 0.0, 0.0, 0.0, 1.612538113261772E9, 2021-02-05 10:15:13.261
213.0, 0.0, 0.0, 61605.7421875, 88312.390625, -31074.310546875, -2862.140869140625, 0.0, 0.0, -0.06000000238418579, 0.984000027179718, 0.09000000357627869, 192.0, 0.0, 0.0, 0.0, 0.0, 0.0, 0.0, 0.0, 0.0, 0.0, 1.612538113261773E9, 2021-02-05 10:15:13.261
214.0, 0.0, 0.0, 61931.51953125, 88652.0703125, -31424.13671875, -4206.083984375, 0.0, 0.0, -0.06000000238418579, 0.984000027179718, 0.09000000357627869, 192.0, 0.0, 0.0, 0.0, 0.0, 0.0, 0.0, 0.0, 0.0, 0.0, 1.612538113261774E9, 2021-02-05 10:15:13.261
215.0, 0.0, 0.0, 61931.09375, 88643.1953125, -31223.41796875, -4686.91455078125, 0.0, 0.0, -0.06000000238418579, 0.984000027179718, 0.09000000357627869, 192.0, 0.0, 0.0, 0.0, 0.0, 0.0, 0.0, 0.0, 0.0, 0.0, 1.612538113261775E9, 2021-02-05 10:15:13.261
216.0, 0.0, 0.0, 61615.44140625, 88306.6015625, -30852.4921875, -3507.92724609375, 0.0, 0.0, -0.06000000238418579, 0.984000027179718, 0.09000000357627869, 192.0, 0.0, 0.0, 0.0, 0.0, 0.0, 0.0, 0.0, 0.0, 0.0, 1.612538113261776E9, 2021-02-05 10:15:13.261
217.0, 0.0, 0.0, 61563.47265625, 88257.3984375, -30988.078125, -2778.947509765625, 0.0, 0.0, -0.06000000238418579, 0.984000027179718, 0.09000000357627869, 192.0, 0.0, 0.0, 0.0, 0.0, 0.0, 0.0, 0.0, 0.0, 0.0, 1.612538113261777E9, 2021-02-05 10:15:13.261
218.0, 0.0, 0.0, 61882.92578125, 88595.0, -31384.888671875, -3959.8349609375, 0.0, 0.0, -0.06000000238418579, 0.984000027179718, 0.09000000357627869, 192.0, 0.0, 0.0, 0.0, 0.0, 0.0, 0.0, 0.0, 0.0, 0.0, 1.612538113261778E9, 2021-02-05 10:15:13.261
